Run Name,group 1
Run Date,12:58:00 PM   03-05-15
Method Name,18% CRL group 12 4 2 14.1
Export Format Version, 1.00
Method ID, 2009
Points/Second, 5.00
Number of Records,   2543
Offset from Run Start Time,00:00:00
Run End Time,00:08:30
Time,Second
QuadTec 1, (280.0 nm), AU
QuadTec 2, (260.0 nm), AU
Gradient Pump,<Not Selected>
QuadTec 3, (214.0 nm), AU
QuadTec 4, (405.0 nm), AU
Conductivity,mS/cm
Trace 6,<Not Available>
GP Pressure,<Not Selected>
Volume,<Not Selected>
Fraction,<Not Available>
Time,QuadTec 1,QuadTec 2,QuadTec 3,QuadTec 4,Conductivity
     0.0,-0.000524,0.000460,-0.005108,0.000511,  35.500
     0.2,-0.000522,0.000463,-0.005034,0.000524,  35.484
     0.4,-0.000363,0.000458,-0.004961,0.000475,  35.475
     0.6,-0.000151,0.000461,-0.004875,0.000484,  35.480
     0.8,0.000000,0.000468,-0.004740,0.000533,  35.498
     1.0,0.000000,0.000468,-0.004581,0.000533,  35.529
     1.2,0.000000,0.000000,-0.004762,0.000000,  35.517
     1.4,0.000000,0.000000,-0.004762,0.000000,  35.482
     1.6,0.000000,0.000000,-0.004762,0.000000,  35.455
     1.8,0.000000,0.000000,-0.004762,0.000000,  35.442
     2.0,0.000000,0.000000,0.000000,0.000000,  35.436
     2.2,0.000000,0.000000,0.000000,0.000000,  35.427
     2.4,0.000000,0.000000,0.000000,0.000000,  35.426
     2.6,0.000000,0.000000,0.000000,0.000000,  35.424
     2.8,0.000000,0.000000,0.000000,0.000000,  35.418
     3.0,0.000000,0.000000,0.000000,0.000000,  35.412
     3.2,0.000000,0.000000,0.000000,0.000000,  35.417
     3.4,0.000000,0.000000,0.000000,0.000000,  35.445
     3.6,0.000000,0.000000,0.000000,0.000000,  35.456
     3.8,0.000000,0.000000,0.000000,0.000000,  35.464
     4.0,0.000000,0.000000,0.000000,0.000000,  35.457
     4.2,0.000000,0.000000,0.000000,0.000000,  35.447
     4.4,-0.000013,0.000000,0.000000,0.000000,  35.429
     4.6,-0.000027,0.000000,0.000000,0.000000,  35.421
     4.8,-0.000045,0.000000,0.000000,0.000000,  35.407
     5.0,-0.000065,0.000000,0.000000,0.000000,  35.406
     5.2,-0.000088,0.000000,0.000000,0.000000,  35.404
     5.4,-0.000123,0.000000,0.000000,0.000000,  35.405
     5.6,-0.000111,0.000000,0.000000,0.000088,  35.403
     5.8,-0.000082,0.000075,-0.000279,0.000049,  35.409
     6.0,-0.000036,0.000055,-0.000252,0.000009,  35.408
     6.2,0.000025,0.000043,-0.000219,-0.000053,  35.404
     6.4,0.000097,0.000031,-0.000188,-0.000101,  35.405
     6.6,0.000194,0.000028,-0.000139,-0.000128,  35.404
     6.8,0.000281,0.000029,-0.000078,-0.000119,  35.402
     7.0,0.000367,0.000046,-0.000010,-0.000092,  35.404
     7.2,0.000473,0.000057,-0.000075,-0.000053,  35.406
     7.4,0.000542,0.000097,-0.000206,0.000013,  35.408
     7.6,0.000594,0.000148,-0.000391,0.000079,  35.405
     7.8,0.000650,0.000213,-0.000293,0.000096,  35.408
     8.0,0.000693,0.000292,-0.000099,0.000149,  35.406
     8.2,0.000718,0.000394,0.000191,0.000202,  35.408
     8.4,0.000746,0.000517,0.000361,0.000219,  35.415
     8.6,0.000775,0.000599,0.000506,0.000281,  35.432
     8.8,0.000791,0.000666,0.000622,0.000307,  35.460
     9.0,0.000815,0.000729,0.000688,0.000311,  35.443
     9.2,0.000833,0.000777,0.000713,0.000373,  35.436
     9.4,0.000843,0.000815,0.000676,0.000387,  35.428
     9.6,0.000868,0.000845,0.000753,0.000377,  35.414
     9.8,0.000886,0.000871,0.000866,0.000426,  35.412
    10.0,0.000868,0.000891,0.000997,0.000452,  35.415
    10.2,0.000845,0.000905,0.000987,0.000430,  35.414
    10.4,0.000808,0.000922,0.000904,0.000466,  35.413
    10.6,0.000802,0.000933,0.000756,0.000479,  35.419
    10.8,0.000805,0.000947,0.000781,0.000443,  35.418
    11.0,0.000816,0.000950,0.000835,0.000492,  35.424
    11.2,0.000834,0.000941,0.000930,0.000479,  35.418
    11.4,0.000851,0.000932,0.000607,0.000417,  35.424
    11.6,0.000874,0.000932,0.000064,0.000413,  35.416
    11.8,0.000883,0.000925,-0.000662,0.000426,  35.419
    12.0,0.000883,0.000926,-0.000681,0.000404,  35.418
    12.2,0.000874,0.000933,-0.000431,0.000452,  35.417
    12.4,0.000869,0.000934,0.000069,0.000466,  35.419
    12.6,0.000866,0.000948,0.000204,0.000443,  35.424
    12.8,0.000857,0.000953,0.000304,0.000479,  35.424
    13.0,0.000851,0.000950,0.000364,0.000492,  35.419
    13.2,0.000848,0.000953,0.000387,0.000470,  35.427
    13.4,0.000845,0.000948,0.000355,0.000505,  35.422
    13.6,0.000843,0.000942,0.000303,0.000457,  35.432
    13.8,0.000837,0.000941,0.000290,0.000457,  35.451
    14.0,0.000834,0.000936,0.000271,0.000457,  35.476
    14.2,0.000835,0.000931,0.000254,0.000457,  35.465
    14.4,0.000826,0.000929,0.000229,0.000457,  35.459
    14.6,0.000812,0.000922,0.000222,0.000457,  35.450
    14.8,0.000801,0.000913,0.000215,0.000479,  35.446
    15.0,0.000781,0.000905,0.000202,0.000492,  35.437
    15.2,0.000755,0.000899,0.000195,0.000457,  35.433
    15.4,0.000719,0.000888,0.000189,0.000479,  35.439
    15.6,0.000690,0.000880,0.000159,0.000492,  35.443
    15.8,0.000662,0.000874,-0.000212,0.000443,  35.439
    16.0,0.000646,0.000868,-0.000755,0.000466,  35.443
    16.2,0.000646,0.000857,-0.001500,0.000452,  35.451
    16.4,0.000652,0.000850,-0.001500,0.000364,  35.447
    16.6,0.000651,0.000826,-0.001207,0.000334,  35.452
    16.8,0.000650,0.000797,-0.000657,0.000334,  35.453
    17.0,0.000658,0.000752,-0.000439,0.000285,  35.452
    17.2,0.000654,0.000736,-0.000213,0.000321,  35.443
    17.4,0.000657,0.000732,-0.000043,0.000334,  35.450
    17.6,0.000668,0.000736,0.000015,0.000298,  35.454
    17.8,0.000675,0.000730,0.000008,0.000347,  35.461
    18.0,0.000681,0.000735,-0.000088,0.000373,  35.463
    18.2,0.000681,0.000738,-0.000113,0.000338,  35.465
    18.4,0.000681,0.000735,-0.000137,0.000387,  35.466
    18.6,0.000680,0.000733,-0.000192,0.000400,  35.468
    18.8,0.000680,0.000737,-0.000188,0.000364,  35.474
    19.0,0.000686,0.000735,-0.000135,0.000351,  35.495
    19.2,0.000686,0.000731,-0.000058,0.000351,  35.507
    19.4,0.000690,0.000734,-0.000107,0.000351,  35.500
    19.6,0.000694,0.000736,-0.000197,0.000351,  35.491
    19.8,0.000697,0.000738,-0.000314,0.000351,  35.486
    20.0,0.000704,0.000748,-0.000321,0.000364,  35.482
    20.2,0.000701,0.000750,-0.000286,0.000377,  35.484
    20.4,0.000670,0.000745,-0.000226,0.000377,  35.482
    20.6,0.000637,0.000750,-0.000216,0.000391,  35.482
    20.8,0.000582,0.000753,-0.000193,0.000391,  35.486
    21.0,0.000560,0.000746,-0.000168,0.000391,  35.488
    21.2,0.000557,0.000747,-0.000146,0.000391,  35.488
    21.4,0.000563,0.000729,-0.000116,0.000391,  35.487
    21.6,0.000562,0.000703,-0.000067,0.000413,  35.490
    21.8,0.000581,0.000670,-0.000042,0.000387,  35.495
    22.0,0.000605,0.000651,-0.000030,0.000347,  35.493
    22.2,0.000612,0.000642,-0.000034,0.000307,  35.494
    22.4,0.000631,0.000641,-0.000064,0.000307,  35.490
    22.6,0.000652,0.000638,-0.000106,0.000285,  35.492
    22.8,0.000657,0.000649,-0.000160,0.000334,  35.497
    23.0,0.000660,0.000662,-0.000239,0.000347,  35.500
    23.2,0.000667,0.000666,-0.000263,0.000325,  35.498
    23.4,0.000669,0.000680,-0.000281,0.000360,  35.499
    23.6,0.000680,0.000692,-0.000293,0.000373,  35.502
    23.8,0.000699,0.000698,-0.000293,0.000338,  35.507
    24.0,0.000698,0.000705,-0.000305,0.000373,  35.512
    24.2,0.000701,0.000709,-0.000293,0.000387,  35.522
    24.4,0.000710,0.000716,-0.000245,0.000351,  35.542
    24.6,0.000706,0.000723,-0.000198,0.000387,  35.541
    24.8,0.000706,0.000732,-0.000121,0.000400,  35.530
    25.0,0.000716,0.000738,-0.000126,0.000377,  35.522
    25.2,0.000704,0.000738,-0.000205,0.000413,  35.520
    25.4,0.000695,0.000742,-0.000300,0.000413,  35.520
    25.6,0.000687,0.000744,-0.000305,0.000391,  35.518
    25.8,0.000669,0.000747,-0.000317,0.000426,  35.523
    26.0,0.000648,0.000744,-0.000293,0.000439,  35.521
    26.2,0.000632,0.000747,-0.000275,0.000404,  35.523
    26.4,0.000628,0.000751,-0.000251,0.000439,  35.526
    26.6,0.000631,0.000753,-0.000233,0.000426,  35.529
    26.8,0.000652,0.000759,-0.000197,0.000338,  35.529
    27.0,0.000661,0.000746,-0.000141,0.000321,  35.533
    27.2,0.000670,0.000726,-0.000102,0.000321,  35.533
    27.4,0.000681,0.000695,-0.000073,0.000285,  35.530
    27.6,0.000687,0.000685,-0.000025,0.000334,  35.531
    27.8,0.000699,0.000688,-0.000002,0.000347,  35.535
    28.0,0.000708,0.000691,-0.000015,0.000325,  35.540
    28.2,0.000716,0.000693,-0.000057,0.000360,  35.542
    28.4,0.000715,0.000707,-0.000128,0.000387,  35.544
    28.6,0.000718,0.000714,-0.000356,0.000364,  35.546
    28.8,0.000725,0.000722,-0.000667,0.000413,  35.552
    29.0,0.000730,0.000734,-0.001053,0.000426,  35.563
    29.2,0.000738,0.000748,-0.001048,0.000404,  35.562
    29.4,0.000757,0.000755,-0.000875,0.000426,  35.579
    29.6,0.000759,0.000762,-0.000534,0.000439,  35.596
    29.8,0.000762,0.000769,-0.000408,0.000417,  35.598
    30.0,0.000771,0.000781,-0.000337,0.000452,  35.592
    30.2,0.000770,0.000790,-0.000307,0.000466,  35.587
    30.4,0.000773,0.000802,-0.000218,0.000479,  35.584
    30.6,0.000776,0.000805,-0.000122,0.000479,  35.585
    30.8,0.000743,0.000809,-0.000032,0.000479,  35.589
    31.0,0.000709,0.000813,0.000046,0.000492,  35.588
    31.2,0.000657,0.000817,0.000118,0.000492,  35.593
    31.4,0.000639,0.000819,0.000160,0.000479,  35.596
    31.6,0.000648,0.000830,0.000202,0.000492,  35.599
    31.8,0.000666,0.000816,0.000209,0.000457,  35.604
    32.0,0.000673,0.000796,0.000169,0.000479,  35.611
    32.2,0.000698,0.000762,0.000104,0.000479,  35.611
    32.4,0.000725,0.000746,0.000141,0.000404,  35.611
    32.6,0.000735,0.000740,0.000213,0.000387,  35.615
    32.8,0.000750,0.000734,0.000309,0.000387,  35.621
    33.0,0.000771,0.000736,0.000297,0.000364,  35.632
    33.2,0.000777,0.000740,0.000242,0.000413,  35.637
    33.4,0.000784,0.000756,0.000153,0.000426,  35.637
    33.6,0.000799,0.000773,0.000134,0.000391,  35.640
    33.8,0.000808,0.000785,0.000146,0.000439,  35.646
    34.0,0.000812,0.000796,0.000183,0.000452,  35.649
    34.2,0.000830,0.000810,0.000153,0.000417,  35.653
    34.4,0.000841,0.000821,0.000106,0.000466,  35.657
    34.6,0.000846,0.000830,0.000041,0.000479,  35.663
    34.8,0.000858,0.000844,0.000041,0.000466,  35.683
    35.0,0.000869,0.000852,0.000065,0.000501,  35.689
    35.2,0.000871,0.000857,0.000102,0.000528,  35.685
    35.4,0.000884,0.000864,-0.000329,0.000492,  35.677
    35.6,0.000884,0.000873,-0.000991,0.000505,  35.677
    35.8,0.000884,0.000876,-0.001864,0.000518,  35.677
    36.0,0.000878,0.000892,-0.001834,0.000496,  35.679
    36.2,0.000869,0.000901,-0.001484,0.000532,  35.683
    36.4,0.000851,0.000902,-0.000786,0.000532,  35.684
    36.6,0.000836,0.000914,-0.000561,0.000496,  35.690
    36.8,0.000813,0.000921,-0.000376,0.000518,  35.692
    37.0,0.000806,0.000925,-0.000262,0.000505,  35.698
    37.2,0.000822,0.000935,-0.000089,0.000443,  35.697
    37.4,0.000836,0.000922,0.000091,0.000439,  35.704
    37.6,0.000847,0.000897,0.000266,0.000439,  35.713
    37.8,0.000867,0.000869,0.000363,0.000391,  35.717
    38.0,0.000884,0.000867,0.000393,0.000439,  35.721
    38.2,0.000894,0.000871,0.000375,0.000452,  35.722
    38.4,0.000918,0.000886,0.000422,0.000430,  35.727
    38.6,0.000937,0.000904,0.000457,0.000492,  35.732
    38.8,0.000943,0.000926,0.000512,0.000505,  35.736
    39.0,0.000957,0.000957,0.000517,0.000518,  35.738
    39.2,0.000970,0.000977,0.000519,0.000532,  35.742
    39.4,0.000996,0.000996,0.000477,0.000532,  35.743
    39.6,0.001020,0.001010,0.000513,0.000545,  35.747
    39.8,0.001063,0.001029,0.000554,0.000545,  35.761
    40.0,0.001093,0.001041,0.000633,0.000545,  35.772
    40.2,0.001121,0.001044,0.000729,0.000558,  35.786
    40.4,0.001147,0.001064,0.000712,0.000549,  35.785
    40.6,0.001176,0.001084,0.000678,0.000598,  35.781
    40.8,0.001208,0.001111,0.000595,0.000624,  35.776
    41.0,0.001240,0.001133,0.000590,0.000602,  35.774
    41.2,0.001238,0.001162,0.000602,0.000637,  35.780
    41.4,0.001233,0.001196,0.000651,0.000650,  35.782
    41.6,0.001202,0.001215,0.000683,0.000641,  35.782
    41.8,0.001210,0.001250,0.000702,0.000664,  35.789
    42.0,0.001246,0.001276,0.000733,0.000677,  35.792
    42.2,0.001284,0.001294,0.000812,0.000655,  35.795
    42.4,0.001318,0.001308,0.000903,0.000703,  35.803
    42.6,0.001367,0.001317,0.000993,0.000703,  35.800
    42.8,0.001422,0.001322,0.001054,0.000641,  35.806
    43.0,0.001459,0.001336,0.001110,0.000637,  35.808
    43.2,0.001497,0.001361,0.001131,0.000650,  35.810
    43.4,0.001542,0.001381,0.001180,0.000641,  35.815
    43.6,0.001567,0.001416,0.001242,0.000703,  35.814
    43.8,0.001593,0.001456,0.001296,0.000730,  35.818
    44.0,0.001617,0.001502,0.001380,0.000721,  35.822
    44.2,0.001636,0.001537,0.001452,0.000783,  35.829
    44.4,0.001666,0.001572,0.001554,0.000809,  35.829
    44.6,0.001696,0.001620,0.001152,0.000800,  35.829
    44.8,0.001713,0.001655,0.000513,0.000835,  35.834
    45.0,0.001728,0.001687,-0.000369,0.000862,  35.839
    45.2,0.001734,0.001716,-0.000369,0.000839,  35.851
    45.4,0.001736,0.001747,-0.000047,0.000875,  35.869
    45.6,0.001742,0.001773,0.000599,0.000901,  35.863
    45.8,0.001748,0.001800,0.000874,0.000879,  35.864
    46.0,0.001754,0.001825,0.001113,0.000915,  35.859
    46.2,0.001744,0.001834,0.001334,0.000928,  35.862
    46.4,0.001735,0.001844,0.001496,0.000892,  35.865
    46.6,0.001722,0.001861,0.001610,0.000941,  35.866
    46.8,0.001689,0.001879,0.001670,0.000954,  35.863
    47.0,0.001651,0.001892,0.001688,0.000906,  35.871
    47.2,0.001608,0.001892,0.001658,0.000941,  35.872
    47.4,0.001584,0.001881,0.001563,0.000928,  35.874
    47.6,0.001578,0.001864,0.001617,0.000853,  35.879
    47.8,0.001578,0.001839,0.001726,0.000835,  35.885
    48.0,0.001563,0.001798,0.001860,0.000809,  35.886
    48.2,0.001561,0.001748,0.001872,0.000796,  35.887
    48.4,0.001556,0.001725,0.001823,0.000783,  35.886
    48.6,0.001535,0.001714,0.001719,0.000783,  35.894
    48.8,0.001520,0.001722,0.001695,0.000796,  35.896
    49.0,0.001507,0.001714,0.001663,0.000796,  35.903
    49.2,0.001482,0.001701,0.001656,0.000809,  35.903
    49.4,0.001468,0.001693,0.001637,0.000822,  35.909
    49.6,0.001450,0.001673,0.001588,0.000787,  35.916
    49.8,0.001432,0.001653,0.001516,0.000809,  35.922
    50.0,0.001430,0.001623,0.001419,0.000809,  35.925
    50.2,0.001421,0.001603,0.001328,0.000773,  35.933
    50.4,0.001403,0.001583,0.001244,0.000783,  35.946
    50.6,0.001398,0.001569,0.001135,0.000783,  35.956
    50.8,0.001381,0.001550,0.001086,0.000747,  35.953
    51.0,0.001359,0.001537,0.001060,0.000769,  35.948
    51.2,0.001346,0.001522,0.001072,0.000769,  35.948
    51.4,0.001325,0.001508,0.000526,0.000734,  35.944
    51.6,0.001275,0.001496,-0.000275,0.000769,  35.949
    51.8,0.001217,0.001487,-0.001330,0.000769,  35.951
    52.0,0.001144,0.001481,-0.001366,0.000721,  35.955
    52.2,0.001108,0.001461,-0.001033,0.000743,  35.959
    52.4,0.001091,0.001440,-0.000337,0.000730,  35.962
    52.6,0.001085,0.001411,-0.000116,0.000681,  35.968
    52.8,0.001082,0.001377,0.000040,0.000703,  35.973
    53.0,0.001079,0.001341,0.000136,0.000677,  35.977
    53.2,0.001089,0.001298,0.000285,0.000589,  35.988
    53.4,0.001083,0.001262,0.000448,0.000571,  35.987
    53.6,0.001080,0.001233,0.000604,0.000571,  35.991
    53.8,0.001071,0.001202,0.000711,0.000536,  35.991
    54.0,0.001063,0.001189,0.000793,0.000571,  35.995
    54.2,0.001060,0.001184,0.000858,0.000584,  36.002
    54.4,0.001057,0.001185,0.000906,0.000549,  36.002
    54.6,0.001051,0.001179,0.000916,0.000584,  36.012
    54.8,0.001038,0.001169,0.000902,0.000598,  36.012
    55.0,0.001039,0.001162,0.000902,0.000549,  36.018
    55.2,0.001035,0.001150,0.000860,0.000584,  36.016
    55.4,0.001019,0.001138,0.000813,0.000598,  36.023
    55.6,0.001020,0.001140,0.000836,0.000549,  36.032
    55.8,0.001008,0.001131,0.000876,0.000584,  36.053
    56.0,0.000996,0.001117,0.000948,0.000598,  36.058
    56.2,0.000997,0.001105,0.000924,0.000549,  36.059
    56.4,0.000991,0.001100,0.000864,0.000584,  36.054
    56.6,0.000975,0.001083,0.000764,0.000598,  36.051
    56.8,0.000965,0.001074,0.000722,0.000549,  36.054
    57.0,0.000947,0.001067,0.000692,0.000584,  36.051
    57.2,0.000912,0.001056,0.000681,0.000584,  36.056
    57.4,0.000884,0.001052,0.000692,0.000584,  36.062
    57.6,0.000837,0.001043,0.000732,0.000584,  36.061
    57.8,0.000819,0.001027,0.000797,0.000571,  36.069
    58.0,0.000823,0.001023,0.000827,0.000545,  36.078
    58.2,0.000831,0.000996,0.000862,0.000518,  36.083
    58.4,0.000827,0.000951,0.000901,0.000479,  36.084
    58.6,0.000834,0.000905,0.000920,0.000479,  36.086
    58.8,0.000834,0.000885,0.000925,0.000417,  36.089
    59.0,0.000833,0.000876,0.000932,0.000439,  36.090
    59.2,0.000839,0.000878,0.000913,0.000452,  36.096
    59.4,0.000845,0.000875,0.000943,0.000430,  36.101
    59.6,0.000841,0.000877,0.000971,0.000443,  36.102
    59.8,0.000838,0.000884,0.000999,0.000457,  36.107
    60.0,0.000836,0.000883,0.000940,0.000457,  36.108
    60.2,0.000832,0.000885,0.000833,0.000457,  36.117
    60.4,0.000838,0.000884,0.000634,0.000457,  36.122
    60.6,0.000853,0.000882,0.000263,0.000457,  36.123
    60.8,0.000849,0.000888,-0.000196,0.000457,  36.133
    61.0,0.000849,0.000884,-0.000804,0.000457,  36.162
    61.2,0.000859,0.000886,-0.000787,0.000457,  36.159
    61.4,0.000855,0.000889,-0.000507,0.000457,  36.152
    61.6,0.000868,0.000891,0.000005,0.000457,  36.150
    61.8,0.000878,0.000893,0.000147,0.000457,  36.148
    62.0,0.000842,0.000900,0.000263,0.000492,  36.150
    62.2,0.000802,0.000899,0.000294,0.000505,  36.152
    62.4,0.000733,0.000908,0.000312,0.000470,  36.158
    62.6,0.000709,0.000907,0.000313,0.000505,  36.163
    62.8,0.000697,0.000902,0.000261,0.000518,  36.168
    63.0,0.000697,0.000895,0.000196,0.000496,  36.171
    63.2,0.000711,0.000879,0.000070,0.000518,  36.176
    63.4,0.000717,0.000862,-0.000086,0.000492,  36.183
    63.6,0.000733,0.000838,-0.000025,0.000430,  36.184
    63.8,0.000744,0.000818,0.000113,0.000400,  36.188
    64.0,0.000746,0.000803,0.000311,0.000387,  36.189
    64.2,0.000762,0.000791,0.000429,0.000364,  36.190
    64.4,0.000770,0.000784,0.000566,0.000413,  36.197
    64.6,0.000766,0.000784,0.000690,0.000426,  36.205
    64.8,0.000773,0.000792,0.000713,0.000404,  36.219
    65.0,0.000770,0.000796,0.000671,0.000452,  36.224
    65.2,0.000766,0.000800,0.000595,0.000466,  36.226
    65.4,0.000773,0.000809,0.000643,0.000430,  36.231
    65.6,0.000783,0.000813,0.000725,0.000466,  36.232
    65.8,0.000779,0.000805,0.000845,0.000479,  36.241
    66.0,0.000779,0.000807,0.000922,0.000430,  36.254
    66.2,0.000789,0.000807,0.000987,0.000466,  36.270
    66.4,0.000782,0.000806,0.001028,0.000466,  36.277
    66.6,0.000776,0.000809,0.000998,0.000479,  36.275
    66.8,0.000777,0.000809,0.000908,0.000466,  36.278
    67.0,0.000767,0.000809,0.000771,0.000479,  36.275
    67.2,0.000765,0.000811,0.000766,0.000492,  36.276
    67.4,0.000759,0.000811,0.000783,0.000492,  36.280
    67.6,0.000734,0.000806,0.000843,0.000479,  36.283
    67.8,0.000712,0.000809,0.000933,0.000492,  36.290
    68.0,0.000675,0.000808,0.000741,0.000457,  36.295
    68.2,0.000662,0.000807,0.000443,0.000479,  36.298
    68.4,0.000672,0.000811,0.000068,0.000479,  36.304
    68.6,0.000680,0.000791,0.000038,0.000404,  36.314
    68.8,0.000685,0.000757,0.000142,0.000387,  36.320
    69.0,0.000704,0.000719,0.000383,0.000373,  36.315
    69.2,0.000722,0.000703,0.000515,0.000325,  36.320
    69.4,0.000724,0.000701,0.000658,0.000347,  36.332
    69.6,0.000730,0.000701,0.000808,0.000360,  36.336
    69.8,0.000737,0.000717,0.000879,0.000325,  36.346
    70.0,0.000733,0.000724,0.000909,0.000387,  36.354
    70.2,0.000730,0.000735,0.000866,0.000400,  36.358
    70.4,0.000730,0.000748,0.000848,0.000391,  36.362
    70.6,0.000729,0.000758,0.000813,0.000426,  36.371
    70.8,0.000738,0.000766,0.000748,0.000426,  36.376
    71.0,0.000744,0.000769,0.000778,0.000404,  36.388
    71.2,0.000743,0.000766,0.000837,0.000426,  36.391
    71.4,0.000753,0.000771,0.000939,0.000439,  36.409
    71.6,0.000753,0.000765,0.000443,0.000404,  36.417
    71.8,0.000753,0.000761,-0.000333,0.000439,  36.421
    72.0,0.000743,0.000761,-0.001405,0.000452,  36.423
    72.2,0.000747,0.000760,-0.001459,0.000417,  36.422
    72.4,0.000741,0.000762,-0.001138,0.000452,  36.427
    72.6,0.000709,0.000771,-0.000427,0.000466,  36.427
    72.8,0.000666,0.000771,-0.000200,0.000466,  36.433
    73.0,0.000614,0.000768,-0.000015,0.000488,  36.438
    73.2,0.000589,0.000773,0.000124,0.000501,  36.449
    73.4,0.000590,0.000769,0.000339,0.000466,  36.448
    73.6,0.000606,0.000754,0.000542,0.000452,  36.453
    73.8,0.000611,0.000734,0.000751,0.000439,  36.467
    74.0,0.000625,0.000710,0.000900,0.000351,  36.469
    74.2,0.000655,0.000690,0.001016,0.000321,  36.472
    74.4,0.000663,0.000674,0.001090,0.000321,  36.478
    74.6,0.000675,0.000660,0.001119,0.000285,  36.478
    74.8,0.000680,0.000660,0.001119,0.000347,  36.486
    75.0,0.000682,0.000676,0.001072,0.000360,  36.495
    75.2,0.000692,0.000691,0.001042,0.000360,  36.506
    75.4,0.000699,0.000697,0.000988,0.000387,  36.512
    75.6,0.000698,0.000707,0.000947,0.000387,  36.520
    75.8,0.000701,0.000710,0.000930,0.000413,  36.522
    76.0,0.000710,0.000712,0.000917,0.000413,  36.526
    76.2,0.000706,0.000712,0.000905,0.000413,  36.528
    76.4,0.000704,0.000713,0.000900,0.000413,  36.544
    76.6,0.000710,0.000717,0.000917,0.000377,  36.550
    76.8,0.000704,0.000712,0.000947,0.000413,  36.574
    77.0,0.000701,0.000714,0.001002,0.000413,  36.568
    77.2,0.000702,0.000714,0.001002,0.000391,  36.568
    77.4,0.000695,0.000712,0.000984,0.000426,  36.567
    77.6,0.000695,0.000718,0.000930,0.000439,  36.569
    77.8,0.000696,0.000720,0.000953,0.000404,  36.573
    78.0,0.000669,0.000719,0.001019,0.000439,  36.579
    78.2,0.000640,0.000731,0.001103,0.000452,  36.579
    78.4,0.000603,0.000731,0.001181,0.000404,  36.585
    78.6,0.000585,0.000726,0.001270,0.000439,  36.591
    78.8,0.000589,0.000724,0.001367,0.000426,  36.594
    79.0,0.000598,0.000719,0.001392,0.000364,  36.602
    79.2,0.000597,0.000695,0.001398,0.000360,  36.607
    79.4,0.000619,0.000664,0.001382,0.000360,  36.610
    79.6,0.000630,0.000627,0.001412,0.000298,  36.608
    79.8,0.000632,0.000615,0.001467,0.000321,  36.614
    80.0,0.000644,0.000609,0.001544,0.000334,  36.620
    80.2,0.000649,0.000614,0.001592,0.000298,  36.624
    80.4,0.000648,0.000617,0.001602,0.000347,  36.627
    80.6,0.000651,0.000626,0.001608,0.000360,  36.642
    80.8,0.000655,0.000630,0.001578,0.000325,  36.642
    81.0,0.000658,0.000636,0.001513,0.000360,  36.651
    81.2,0.000658,0.000640,0.001400,0.000373,  36.650
    81.4,0.000661,0.000650,0.001363,0.000338,  36.655
    81.6,0.000661,0.000656,0.001370,0.000373,  36.662
    81.8,0.000667,0.000659,0.001377,0.000387,  36.678
    82.0,0.000673,0.000662,0.001418,0.000351,  36.686
    82.2,0.000679,0.000666,0.001471,0.000351,  36.684
    82.4,0.000675,0.000670,0.001560,0.000364,  36.680
    82.6,0.000672,0.000670,0.001578,0.000364,  36.676
    82.8,0.000670,0.000673,0.001560,0.000351,  36.680
    83.0,0.000640,0.000673,0.001527,0.000351,  36.681
    83.2,0.000611,0.000670,0.001509,0.000364,  36.685
    83.4,0.000571,0.000673,0.001484,0.000364,  36.690
    83.6,0.000550,0.000675,0.001486,0.000364,  36.694
    83.8,0.000544,0.000677,0.001498,0.000377,  36.698
    84.0,0.000551,0.000671,0.001523,0.000364,  36.701
    84.2,0.000550,0.000661,0.001565,0.000351,  36.706
    84.4,0.000561,0.000641,0.001614,0.000289,  36.723
    84.6,0.000586,0.000631,0.001646,0.000298,  36.724
    84.8,0.000587,0.000613,0.001684,0.000245,  36.725
    85.0,0.000596,0.000588,0.001684,0.000245,  36.729
    85.2,0.000612,0.000583,0.001703,0.000245,  36.733
    85.4,0.000611,0.000582,0.001691,0.000259,  36.741
    85.6,0.000614,0.000598,0.001666,0.000272,  36.745
    85.8,0.000611,0.000604,0.001654,0.000285,  36.746
    86.0,0.000610,0.000605,0.001649,0.000311,  36.753
    86.2,0.000625,0.000624,0.001619,0.000325,  36.756
    86.4,0.000628,0.000631,0.001541,0.000325,  36.758
    86.6,0.000624,0.000630,0.001429,0.000325,  36.761
    86.8,0.000631,0.000636,0.001274,0.000338,  36.767
    87.0,0.000638,0.000640,0.001316,0.000338,  36.790
    87.2,0.000631,0.000637,0.001418,0.000325,  36.798
    87.4,0.000631,0.000647,0.001578,0.000351,  36.798
    87.6,0.000638,0.000649,0.001643,0.000351,  36.792
    87.8,0.000634,0.000649,0.001686,0.000351,  36.791
    88.0,0.000634,0.000654,0.001703,0.000364,  36.792
    88.2,0.000641,0.000659,0.001721,0.000364,  36.795
    88.4,0.000616,0.000661,0.001703,0.000351,  36.793
    88.6,0.000590,0.000663,0.001693,0.000351,  36.796
    88.8,0.000560,0.000663,0.001735,0.000351,  36.799
    89.0,0.000544,0.000662,0.001777,0.000351,  36.804
    89.2,0.000547,0.000660,0.001837,0.000338,  36.807
    89.4,0.000565,0.000666,0.001640,0.000311,  36.814
    89.6,0.000568,0.000646,0.001349,0.000285,  36.817
    89.8,0.000577,0.000618,0.000908,0.000272,  36.819
    90.0,0.000583,0.000582,0.000914,0.000259,  36.821
    90.2,0.000591,0.000569,0.001119,0.000245,  36.823
    90.4,0.000597,0.000564,0.001460,0.000245,  36.826
    90.6,0.000600,0.000580,0.001567,0.000272,  36.834
    90.8,0.000603,0.000587,0.001644,0.000307,  36.836
    91.0,0.000599,0.000588,0.001687,0.000321,  36.837
    91.2,0.000602,0.000600,0.001195,0.000298,  36.843
    91.4,0.000609,0.000609,0.000428,0.000334,  36.853
    91.6,0.000608,0.000611,-0.000597,0.000347,  36.863
    91.8,0.000611,0.000620,-0.000567,0.000311,  36.865
    92.0,0.000620,0.000627,-0.000162,0.000347,  36.874
    92.2,0.000616,0.000624,0.000638,0.000360,  36.877
    92.4,0.000619,0.000627,0.000949,0.000311,  36.895
    92.6,0.000623,0.000629,0.001207,0.000347,  36.894
    92.8,0.000619,0.000628,0.001398,0.000347,  36.891
    93.0,0.000622,0.000626,0.001595,0.000347,  36.886
    93.2,0.000629,0.000628,0.001752,0.000360,  36.893
    93.4,0.000602,0.000630,0.001878,0.000360,  36.892
    93.6,0.000570,0.000633,0.001956,0.000373,  36.893
    93.8,0.000530,0.000636,0.002023,0.000373,  36.897
    94.0,0.000512,0.000632,0.002028,0.000373,  36.900
    94.2,0.000509,0.000628,0.002011,0.000373,  36.900
    94.4,0.000519,0.000624,0.002023,0.000338,  36.905
    94.6,0.000524,0.000606,0.002017,0.000373,  36.906
    94.8,0.000548,0.000584,0.002014,0.000347,  36.910
    95.0,0.000575,0.000570,0.002075,0.000272,  36.909
    95.2,0.000577,0.000561,0.002149,0.000255,  36.916
    95.4,0.000587,0.000554,0.002260,0.000255,  36.917
    95.6,0.000587,0.000547,0.002279,0.000232,  36.931
    95.8,0.000586,0.000551,0.002237,0.000281,  36.933
    96.0,0.000595,0.000558,0.002177,0.000307,  36.937
    96.2,0.000598,0.000574,0.002194,0.000285,  36.941
    96.4,0.000594,0.000578,0.002217,0.000321,  36.945
    96.6,0.000604,0.000587,0.002277,0.000334,  36.943
    96.8,0.000598,0.000600,0.002295,0.000298,  36.948
    97.0,0.000594,0.000605,0.002270,0.000334,  36.951
    97.2,0.000607,0.000603,0.002260,0.000347,  36.952
    97.4,0.000610,0.000608,0.002187,0.000311,  36.960
    97.6,0.000606,0.000609,0.002061,0.000334,  36.972
    97.8,0.000613,0.000608,0.001904,0.000347,  36.974
    98.0,0.000613,0.000608,0.001929,0.000311,  36.969
    98.2,0.000613,0.000610,0.002013,0.000347,  36.969
    98.4,0.000606,0.000608,0.002157,0.000360,  36.964
    98.6,0.000610,0.000608,0.002277,0.000325,  36.967
    98.8,0.000607,0.000611,0.002422,0.000360,  36.966
    99.0,0.000593,0.000611,0.002552,0.000373,  36.969
    99.2,0.000566,0.000613,0.002535,0.000360,  36.972
    99.4,0.000534,0.000615,0.002446,0.000382,  36.973
    99.6,0.000525,0.000613,0.002268,0.000382,  36.976
    99.8,0.000525,0.000613,0.002293,0.000356,  36.981
   100.0,0.000536,0.000600,0.002367,0.000330,  36.985
   100.2,0.000546,0.000576,0.002481,0.000317,  36.986
   100.4,0.000563,0.000546,0.002566,0.000303,  36.987
   100.6,0.000584,0.000535,0.002650,0.000290,  36.987
   100.8,0.000586,0.000539,0.002735,0.000290,  36.990
   101.0,0.000585,0.000547,0.002777,0.000303,  36.992
   101.2,0.000584,0.000547,0.002802,0.000330,  36.990
   101.4,0.000583,0.000552,0.002770,0.000343,  36.994
   101.6,0.000579,0.000563,0.002788,0.000343,  37.008
   101.8,0.000593,0.000569,0.002811,0.000356,  37.003
   102.0,0.000599,0.000576,0.002829,0.000343,  37.006
   102.2,0.000598,0.000575,0.002816,0.000356,  37.007
   102.4,0.000607,0.000581,0.002799,0.000343,  37.012
   102.6,0.000610,0.000584,0.002744,0.000343,  37.013
   102.8,0.000603,0.000589,0.002691,0.000356,  37.024
   103.0,0.000606,0.000588,0.002739,0.000334,  37.027
   103.2,0.000609,0.000595,0.002811,0.000334,  37.025
   103.4,0.000605,0.000606,0.002926,0.000347,  37.019
   103.6,0.000605,0.000601,0.002883,0.000311,  37.015
   103.8,0.000591,0.000605,0.002788,0.000347,  37.017
   104.0,0.000561,0.000607,0.002622,0.000360,  37.016
   104.2,0.000530,0.000602,0.002664,0.000311,  37.015
   104.4,0.000521,0.000599,0.002747,0.000347,  37.019
   104.6,0.000511,0.000602,0.002910,0.000360,  37.023
   104.8,0.000524,0.000600,0.002952,0.000311,  37.015
   105.0,0.000530,0.000588,0.002959,0.000347,  37.013
   105.2,0.000532,0.000577,0.002923,0.000334,  37.013
   105.4,0.000550,0.000571,0.002955,0.000259,  37.014
   105.6,0.000552,0.000565,0.003004,0.000241,  37.016
   105.8,0.000561,0.000557,0.003073,0.000255,  37.014
   106.0,0.000569,0.000547,0.003115,0.000219,  37.013
   106.2,0.000572,0.000542,0.003138,0.000268,  37.013
   106.4,0.000578,0.000551,0.003174,0.000281,  37.012
   106.6,0.000585,0.000554,0.003174,0.000259,  37.012
   106.8,0.000595,0.000558,0.003131,0.000294,  37.015
   107.0,0.000594,0.000564,0.003091,0.000294,  37.014
   107.2,0.000606,0.000580,0.002868,0.000272,  37.016
   107.4,0.000605,0.000590,0.002543,0.000307,  37.016
   107.6,0.000604,0.000587,0.002122,0.000307,  37.011
   107.8,0.000614,0.000593,0.002115,0.000285,  37.019
   108.0,0.000620,0.000600,0.002284,0.000307,  37.034
   108.2,0.000623,0.000604,0.002603,0.000321,  37.036
   108.4,0.000616,0.000606,0.002741,0.000298,  37.029
   108.6,0.000623,0.000612,0.002873,0.000334,  37.018
   108.8,0.000626,0.000617,0.002976,0.000347,  37.015
   109.0,0.000619,0.000622,0.002542,0.000311,  37.011
   109.2,0.000626,0.000623,0.001834,0.000347,  37.011
   109.4,0.000617,0.000630,0.000852,0.000360,  37.010
   109.6,0.000598,0.000635,0.000750,0.000311,  37.009
   109.8,0.000585,0.000639,0.000968,0.000347,  37.009
   110.0,0.000582,0.000643,0.001478,0.000347,  37.001
   110.2,0.000578,0.000646,0.001749,0.000298,  37.003
   110.4,0.000585,0.000637,0.002057,0.000307,  37.004
   110.6,0.000588,0.000621,0.002382,0.000307,  37.003
   110.8,0.000587,0.000597,0.002618,0.000307,  37.005
   111.0,0.000599,0.000592,0.002812,0.000294,  37.002
   111.2,0.000595,0.000596,0.002944,0.000294,  37.001
   111.4,0.000601,0.000604,0.002897,0.000307,  37.003
   111.6,0.000604,0.000608,0.002727,0.000307,  37.000
   111.8,0.000603,0.000618,0.002457,0.000307,  37.003
   112.0,0.000613,0.000630,0.002054,0.000321,  36.994
   112.2,0.000610,0.000637,0.002186,0.000285,  36.998
   112.4,0.000609,0.000637,0.002438,0.000321,  36.998
   112.6,0.000622,0.000632,0.002828,0.000334,  36.994
   112.8,0.000624,0.000632,0.002960,0.000285,  36.995
   113.0,0.000623,0.000635,0.003021,0.000321,  36.988
   113.2,0.000636,0.000636,0.003027,0.000334,  36.998
   113.4,0.000639,0.000635,0.003105,0.000285,  37.009
   113.6,0.000635,0.000645,0.003183,0.000321,  37.001
   113.8,0.000642,0.000647,0.003262,0.000334,  36.994
   114.0,0.000642,0.000651,0.003347,0.000298,  36.975
   114.2,0.000623,0.000656,0.003425,0.000334,  36.969
   114.4,0.000607,0.000656,0.003510,0.000347,  36.972
   114.6,0.000572,0.000663,0.003559,0.000311,  36.968
   114.8,0.000560,0.000668,0.003571,0.000334,  36.959
   115.0,0.000562,0.000670,0.003559,0.000347,  36.963
   115.2,0.000568,0.000670,0.003589,0.000311,  36.962
   115.4,0.000567,0.000657,0.003614,0.000334,  36.961
   115.6,0.000576,0.000650,0.003663,0.000321,  36.962
   115.8,0.000591,0.000636,0.003550,0.000259,  36.959
   116.0,0.000600,0.000627,0.003339,0.000241,  36.955
   116.2,0.000606,0.000619,0.003065,0.000241,  36.953
   116.4,0.000612,0.000617,0.003127,0.000206,  36.951
   116.6,0.000618,0.000617,0.003277,0.000255,  36.950
   116.8,0.000623,0.000619,0.003548,0.000268,  36.948
   117.0,0.000623,0.000622,0.003597,0.000245,  36.947
   117.2,0.000620,0.000626,0.003574,0.000294,  36.943
   117.4,0.000616,0.000633,0.003485,0.000307,  36.943
   117.6,0.000622,0.000640,0.003533,0.000285,  36.945
   117.8,0.000635,0.000644,0.003635,0.000307,  36.939
   118.0,0.000634,0.000639,0.003787,0.000307,  36.934
   118.2,0.000637,0.000641,0.003872,0.000285,  36.943
   118.4,0.000647,0.000645,0.003952,0.000307,  36.940
   118.6,0.000645,0.000650,0.004019,0.000321,  36.956
   118.8,0.000651,0.000660,0.004086,0.000285,  36.950
   119.0,0.000664,0.000664,0.004148,0.000321,  36.941
   119.2,0.000660,0.000659,0.004185,0.000321,  36.932
   119.4,0.000660,0.000664,0.004252,0.000334,  36.931
   119.6,0.000667,0.000667,0.004332,0.000356,  36.923
   119.8,0.000654,0.000664,0.004393,0.000343,  36.912
   120.0,0.000643,0.000667,0.004431,0.000356,  36.910
   120.2,0.000629,0.000667,0.004468,0.000343,  36.908
   120.4,0.000622,0.000664,0.004494,0.000343,  36.908
   120.6,0.000628,0.000664,0.004501,0.000343,  36.905
   120.8,0.000647,0.000658,0.004563,0.000294,  36.899
   121.0,0.000651,0.000645,0.004631,0.000268,  36.902
   121.2,0.000663,0.000626,0.004706,0.000255,  36.905
   121.4,0.000681,0.000626,0.004780,0.000219,  36.896
   121.6,0.000686,0.000625,0.004824,0.000255,  36.889
   121.8,0.000698,0.000628,0.004875,0.000241,  36.889
   122.0,0.000713,0.000630,0.004743,0.000206,  36.882
   122.2,0.000718,0.000634,0.004521,0.000255,  36.884
   122.4,0.000727,0.000644,0.004197,0.000268,  36.880
   122.6,0.000735,0.000648,0.004253,0.000232,  36.876
   122.8,0.000743,0.000655,0.004455,0.000268,  36.872
   123.0,0.000765,0.000657,0.004802,0.000281,  36.864
   123.2,0.000779,0.000664,0.005034,0.000259,  36.862
   123.4,0.000787,0.000673,0.005271,0.000281,  36.865
   123.6,0.000805,0.000679,0.005534,0.000281,  36.871
   123.8,0.000811,0.000691,0.005785,0.000259,  36.882
   124.0,0.000819,0.000697,0.006017,0.000281,  36.875
   124.2,0.000834,0.000703,0.006263,0.000281,  36.869
   124.4,0.000850,0.000709,0.006447,0.000259,  36.857
   124.6,0.000850,0.000713,0.006609,0.000294,  36.851
   124.8,0.000840,0.000722,0.006735,0.000294,  36.841
   125.0,0.000841,0.000726,0.006914,0.000259,  36.831
   125.2,0.000820,0.000733,0.007106,0.000294,  36.829
   125.4,0.000828,0.000742,0.007304,0.000294,  36.823
   125.6,0.000840,0.000756,0.007466,0.000259,  36.826
   125.8,0.000855,0.000751,0.007622,0.000294,  36.821
   126.0,0.000868,0.000751,0.007741,0.000268,  36.819
   126.2,0.000901,0.000745,0.007903,0.000206,  36.818
   126.4,0.000930,0.000744,0.008071,0.000189,  36.809
   126.6,0.000949,0.000746,0.008245,0.000189,  36.809
   126.8,0.000978,0.000748,0.008396,0.000166,  36.807
   127.0,0.001002,0.000759,0.008522,0.000215,  36.800
   127.2,0.001018,0.000773,0.008657,0.000228,  36.800
   127.4,0.001041,0.000794,0.008882,0.000206,  36.794
   127.6,0.001061,0.000805,0.009162,0.000241,  36.790
   127.8,0.001088,0.000819,0.009461,0.000241,  36.790
   128.0,0.001117,0.000840,0.009558,0.000268,  36.786
   128.2,0.001156,0.000855,0.009570,0.000268,  36.780
   128.4,0.001181,0.000864,0.009484,0.000268,  36.771
   128.6,0.001213,0.000879,0.009772,0.000268,  36.767
   128.8,0.001251,0.000894,0.010220,0.000281,  36.766
   129.0,0.001277,0.000911,0.010791,0.000281,  36.780
   129.2,0.001313,0.000928,0.011146,0.000281,  36.783
   129.4,0.001351,0.000946,0.011491,0.000259,  36.772
   129.6,0.001379,0.000964,0.011772,0.000294,  36.758
   129.8,0.001415,0.000990,0.012036,0.000294,  36.750
   130.0,0.001444,0.001005,0.012456,0.000259,  36.746
   130.2,0.001452,0.001023,0.012901,0.000294,  36.745
   130.4,0.001468,0.001047,0.013390,0.000294,  36.736
   130.6,0.001465,0.001067,0.013849,0.000272,  36.735
   130.8,0.001484,0.001082,0.014296,0.000307,  36.729
   131.0,0.001523,0.001104,0.014725,0.000307,  36.724
   131.2,0.001564,0.001108,0.014999,0.000272,  36.722
   131.4,0.001600,0.001100,0.015180,0.000281,  36.721
   131.6,0.001651,0.001083,0.015256,0.000268,  36.713
   131.8,0.001698,0.001092,0.015561,0.000232,  36.700
   132.0,0.001740,0.001105,0.015928,0.000255,  36.694
   132.2,0.001791,0.001124,0.016339,0.000255,  36.689
   132.4,0.001837,0.001152,0.016771,0.000219,  36.686
   132.6,0.001877,0.001176,0.017223,0.000268,  36.685
   132.8,0.001933,0.001198,0.017708,0.000281,  36.674
   133.0,0.001977,0.001232,0.018262,0.000259,  36.674
   133.2,0.002023,0.001258,0.018849,0.000281,  36.671
   133.4,0.002082,0.001290,0.019462,0.000281,  36.666
   133.6,0.002137,0.001325,0.019539,0.000259,  36.665
   133.8,0.002184,0.001358,0.019372,0.000294,  36.659
   134.0,0.002221,0.001377,0.018921,0.000294,  36.662
   134.2,0.002265,0.001403,0.019344,0.000272,  36.670
   134.4,0.002300,0.001436,0.020072,0.000307,  36.667
   134.6,0.002353,0.001466,0.021099,0.000307,  36.657
   134.8,0.002405,0.001504,0.021994,0.000285,  36.646
   135.0,0.002464,0.001535,0.022968,0.000307,  36.636
   135.2,0.002497,0.001569,0.024021,0.000307,  36.621
   135.4,0.002536,0.001606,0.024878,0.000285,  36.617
   135.6,0.002560,0.001640,0.025693,0.000307,  36.612
   135.8,0.002594,0.001675,0.026459,0.000307,  36.609
   136.0,0.002638,0.001715,0.027167,0.000285,  36.601
   136.2,0.002676,0.001744,0.027820,0.000307,  36.598
   136.4,0.002731,0.001761,0.028422,0.000294,  36.591
   136.6,0.002811,0.001779,0.028983,0.000219,  36.591
   136.8,0.002892,0.001799,0.029499,0.000202,  36.583
   137.0,0.002961,0.001812,0.029949,0.000189,  36.575
   137.2,0.003047,0.001832,0.030520,0.000202,  36.572
   137.4,0.003126,0.001860,0.031106,0.000189,  36.561
   137.6,0.003195,0.001901,0.031747,0.000215,  36.557
   137.8,0.003281,0.001949,0.032617,0.000228,  36.551
   138.0,0.003356,0.001992,0.033599,0.000228,  36.542
   138.2,0.003431,0.002044,0.034723,0.000241,  36.541
   138.4,0.003520,0.002094,0.035499,0.000268,  36.535
   138.6,0.003608,0.002141,0.036170,0.000232,  36.532
   138.8,0.003691,0.002182,0.036710,0.000268,  36.527
   139.0,0.003783,0.002231,0.037144,0.000281,  36.521
   139.2,0.003871,0.002279,0.038091,0.000259,  36.524
   139.4,0.003952,0.002333,0.039180,0.000281,  36.533
   139.6,0.004046,0.002386,0.040412,0.000281,  36.533
   139.8,0.004131,0.002439,0.041554,0.000259,  36.521
   140.0,0.004212,0.002500,0.042719,0.000294,  36.508
   140.2,0.004307,0.002553,0.043909,0.000294,  36.492
   140.4,0.004399,0.002598,0.044554,0.000272,  36.483
   140.6,0.004453,0.002641,0.044936,0.000307,  36.478
   140.8,0.004497,0.002677,0.045042,0.000321,  36.469
   141.0,0.004536,0.002709,0.046067,0.000285,  36.463
   141.2,0.004603,0.002756,0.047434,0.000321,  36.457
   141.4,0.004690,0.002813,0.049148,0.000321,  36.455
   141.6,0.004797,0.002871,0.050354,0.000272,  36.447
   141.8,0.004896,0.002909,0.051481,0.000294,  36.442
   142.0,0.005010,0.002928,0.052529,0.000281,  36.438
   142.2,0.005130,0.002941,0.053565,0.000232,  36.426
   142.4,0.005238,0.002980,0.054556,0.000255,  36.421
   142.6,0.005356,0.003019,0.055500,0.000241,  36.409
   142.8,0.005468,0.003080,0.056656,0.000206,  36.405
   143.0,0.005562,0.003145,0.057905,0.000255,  36.402
   143.2,0.005640,0.003214,0.059249,0.000268,  36.397
   143.4,0.005723,0.003295,0.060625,0.000245,  36.394
   143.6,0.005788,0.003364,0.062063,0.000281,  36.387
   143.8,0.005896,0.003431,0.063555,0.000294,  36.385
   144.0,0.006017,0.003504,0.064988,0.000272,  36.380
   144.2,0.006149,0.003571,0.066405,0.000294,  36.378
   144.4,0.006263,0.003636,0.067819,0.000294,  36.377
   144.6,0.006387,0.003701,0.069267,0.000259,  36.388
   144.8,0.006505,0.003777,0.070727,0.000294,  36.394
   145.0,0.006619,0.003845,0.072169,0.000294,  36.379
   145.2,0.006740,0.003922,0.073653,0.000259,  36.369
   145.4,0.006855,0.003996,0.075164,0.000294,  36.363
   145.6,0.006948,0.004075,0.076679,0.000294,  36.349
   145.8,0.007040,0.004155,0.078140,0.000272,  36.344
   146.0,0.007122,0.004231,0.079548,0.000307,  36.337
   146.2,0.007201,0.004299,0.080945,0.000307,  36.335
   146.4,0.007280,0.004376,0.082436,0.000321,  36.331
   146.6,0.007364,0.004442,0.083912,0.000307,  36.325
   146.8,0.007475,0.004509,0.085431,0.000307,  36.324
   147.0,0.007611,0.004569,0.086527,0.000294,  36.321
   147.2,0.007768,0.004615,0.087393,0.000255,  36.315
   147.4,0.007906,0.004663,0.088042,0.000215,  36.309
   147.6,0.008063,0.004694,0.089070,0.000215,  36.302
   147.8,0.008218,0.004759,0.090198,0.000193,  36.286
   148.0,0.008356,0.004840,0.091382,0.000241,  36.283
   148.2,0.008499,0.004933,0.092667,0.000268,  36.279
   148.4,0.008635,0.005020,0.094269,0.000232,  36.274
   148.6,0.008772,0.005112,0.096058,0.000268,  36.273
   148.8,0.008918,0.005216,0.098023,0.000281,  36.269
   149.0,0.009060,0.005310,0.099813,0.000259,  36.258
   149.2,0.009205,0.005395,0.101587,0.000281,  36.258
   149.4,0.009360,0.005487,0.103351,0.000281,  36.257
   149.6,0.009514,0.005564,0.105117,0.000259,  36.254
   149.8,0.009655,0.005630,0.106898,0.000294,  36.257
   150.0,0.009801,0.005698,0.108632,0.000294,  36.262
   150.2,0.009940,0.005757,0.110490,0.000272,  36.257
   150.4,0.010076,0.005841,0.112387,0.000307,  36.248
   150.6,0.010219,0.005940,0.114332,0.000307,  36.237
   150.8,0.010356,0.006050,0.116281,0.000285,  36.234
   151.0,0.010453,0.006145,0.118216,0.000307,  36.217
   151.2,0.010549,0.006232,0.120145,0.000307,  36.216
   151.4,0.010617,0.006320,0.121982,0.000285,  36.209
   151.6,0.010729,0.006409,0.123742,0.000307,  36.205
   151.8,0.010864,0.006492,0.125442,0.000307,  36.196
   152.0,0.011009,0.006585,0.127154,0.000272,  36.189
   152.2,0.011131,0.006652,0.128823,0.000294,  36.193
   152.4,0.011249,0.006706,0.130468,0.000294,  36.187
   152.6,0.011372,0.006754,0.131618,0.000245,  36.181
   152.8,0.011488,0.006824,0.132524,0.000268,  36.172
   153.0,0.011634,0.006903,0.133149,0.000268,  36.155
   153.2,0.011783,0.006984,0.134855,0.000245,  36.153
   153.4,0.011954,0.007074,0.136958,0.000281,  36.145
   153.6,0.012093,0.007173,0.139442,0.000281,  36.143
   153.8,0.012236,0.007284,0.141612,0.000259,  36.144
   154.0,0.012380,0.007386,0.143800,0.000294,  36.133
   154.2,0.012525,0.007490,0.146017,0.000294,  36.130
   154.4,0.012680,0.007597,0.148080,0.000259,  36.126
   154.6,0.012842,0.007697,0.150098,0.000294,  36.115
   154.8,0.012991,0.007793,0.152028,0.000294,  36.117
   155.0,0.013146,0.007881,0.153921,0.000259,  36.127
   155.2,0.013305,0.007980,0.155773,0.000294,  36.136
   155.4,0.013451,0.008078,0.157552,0.000294,  36.121
   155.6,0.013600,0.008186,0.159625,0.000307,  36.109
   155.8,0.013751,0.008289,0.161800,0.000294,  36.097
   156.0,0.013879,0.008395,0.164087,0.000294,  36.079
   156.2,0.014004,0.008499,0.165916,0.000307,  36.078
   156.4,0.014122,0.008599,0.167572,0.000307,  36.072
   156.6,0.014224,0.008694,0.169030,0.000307,  36.066
   156.8,0.014324,0.008789,0.170325,0.000307,  36.060
   157.0,0.014422,0.008874,0.172074,0.000285,  36.057
   157.2,0.014557,0.008964,0.173917,0.000307,  36.055
   157.4,0.014696,0.009057,0.175836,0.000294,  36.054
   157.6,0.014873,0.009122,0.177361,0.000232,  36.049
   157.8,0.015025,0.009183,0.178675,0.000215,  36.041
   158.0,0.015184,0.009241,0.179818,0.000215,  36.034
   158.2,0.015343,0.009327,0.181650,0.000179,  36.029
   158.4,0.015490,0.009429,0.183752,0.000215,  36.018
   158.6,0.015647,0.009544,0.186095,0.000228,  36.006
   158.8,0.015791,0.009632,0.188147,0.000206,  36.005
   159.0,0.015931,0.009713,0.190180,0.000241,  35.997
   159.2,0.016076,0.009796,0.192200,0.000255,  35.994
   159.4,0.016220,0.009861,0.194250,0.000219,  35.988
   159.6,0.016364,0.009955,0.196283,0.000255,  35.979
   159.8,0.016511,0.010062,0.198319,0.000255,  35.979
   160.0,0.016656,0.010173,0.200275,0.000219,  35.976
   160.2,0.016790,0.010271,0.202207,0.000255,  35.980
   160.4,0.016936,0.010366,0.204103,0.000255,  35.986
   160.6,0.017066,0.010460,0.206182,0.000219,  35.980
   160.8,0.017180,0.010559,0.208356,0.000255,  35.968
   161.0,0.017283,0.010660,0.210621,0.000268,  35.958
   161.2,0.017379,0.010768,0.212626,0.000232,  35.941
   161.4,0.017468,0.010866,0.214561,0.000268,  35.932
   161.6,0.017573,0.010965,0.216378,0.000281,  35.926
   161.8,0.017676,0.011059,0.218255,0.000245,  35.919
   162.0,0.017775,0.011153,0.220140,0.000268,  35.913
   162.2,0.017880,0.011243,0.222013,0.000268,  35.909
   162.4,0.017998,0.011344,0.223969,0.000232,  35.903
   162.6,0.018123,0.011426,0.225900,0.000268,  35.888
   162.8,0.018240,0.011498,0.227846,0.000255,  35.885
   163.0,0.018373,0.011564,0.229269,0.000219,  35.875
   163.2,0.018509,0.011641,0.230384,0.000241,  35.868
   163.4,0.018632,0.011723,0.231216,0.000241,  35.863
   163.6,0.018766,0.011810,0.232859,0.000206,  35.851
   163.8,0.018887,0.011899,0.234725,0.000241,  35.850
   164.0,0.019001,0.011992,0.236880,0.000241,  35.838
   164.2,0.019123,0.012095,0.238749,0.000255,  35.834
   164.4,0.019236,0.012194,0.240612,0.000255,  35.823
   164.6,0.019347,0.012281,0.242439,0.000241,  35.808
   164.8,0.019468,0.012370,0.244010,0.000255,  35.802
   165.0,0.019589,0.012461,0.245401,0.000241,  35.788
   165.2,0.019698,0.012548,0.246701,0.000241,  35.786
   165.4,0.019807,0.012632,0.247797,0.000255,  35.781
   165.6,0.019923,0.012720,0.249387,0.000219,  35.787
   165.8,0.020022,0.012811,0.251071,0.000241,  35.781
   166.0,0.020126,0.012907,0.252855,0.000255,  35.763
   166.2,0.020236,0.012995,0.254434,0.000219,  35.743
   166.4,0.020326,0.013077,0.255966,0.000241,  35.732
   166.6,0.020417,0.013169,0.257450,0.000255,  35.723
   166.8,0.020512,0.013239,0.259098,0.000219,  35.714
   167.0,0.020590,0.013303,0.260805,0.000241,  35.700
   167.2,0.020672,0.013351,0.262527,0.000255,  35.696
   167.4,0.020755,0.013399,0.264157,0.000206,  35.676
   167.6,0.020837,0.013470,0.265711,0.000228,  35.667
   167.8,0.020931,0.013541,0.267225,0.000228,  35.651
   168.0,0.021035,0.013628,0.268480,0.000179,  35.646
   168.2,0.021119,0.013701,0.269558,0.000189,  35.634
   168.4,0.021208,0.013773,0.270462,0.000202,  35.618
   168.6,0.021294,0.013846,0.271835,0.000179,  35.604
   168.8,0.021369,0.013919,0.273372,0.000215,  35.596
   169.0,0.021448,0.013993,0.275047,0.000228,  35.576
   169.2,0.021531,0.014067,0.276597,0.000193,  35.569
   169.4,0.021598,0.014134,0.278159,0.000215,  35.553
   169.6,0.021656,0.014200,0.279734,0.000215,  35.535
   169.8,0.021721,0.014274,0.281118,0.000179,  35.521
   170.0,0.021767,0.014338,0.282396,0.000189,  35.508
   170.2,0.021834,0.014401,0.283588,0.000189,  35.501
   170.4,0.021907,0.014467,0.284876,0.000166,  35.474
   170.6,0.021980,0.014534,0.286184,0.000189,  35.471
   170.8,0.022043,0.014603,0.287490,0.000189,  35.471
   171.0,0.022117,0.014670,0.288807,0.000166,  35.457
   171.2,0.022178,0.014734,0.290087,0.000189,  35.440
   171.4,0.022235,0.014805,0.291370,0.000189,  35.420
   171.6,0.022306,0.014869,0.292511,0.000153,  35.400
   171.8,0.022364,0.014926,0.293555,0.000162,  35.382
   172.0,0.022440,0.014987,0.294487,0.000162,  35.362
   172.2,0.022535,0.015038,0.295556,0.000140,  35.343
   172.4,0.022630,0.015098,0.296662,0.000162,  35.333
   172.6,0.022681,0.015149,0.297788,0.000162,  35.313
   172.8,0.022731,0.015209,0.298893,0.000175,  35.302
   173.0,0.022755,0.015271,0.299976,0.000162,  35.275
   173.2,0.022782,0.015325,0.301080,0.000149,  35.263
   173.4,0.022819,0.015385,0.301875,0.000175,  35.250
   173.6,0.022851,0.015445,0.302548,0.000189,  35.227
   173.8,0.022874,0.015511,0.303057,0.000202,  35.202
   174.0,0.022902,0.015578,0.303395,0.000202,  35.181
   174.2,0.022929,0.015624,0.304165,0.000153,  35.169
   174.4,0.022953,0.015666,0.304976,0.000162,  35.145
   174.6,0.022990,0.015701,0.305869,0.000149,  35.127
   174.8,0.023021,0.015736,0.306704,0.000100,  35.110
   175.0,0.023045,0.015768,0.307591,0.000109,  35.087
   175.2,0.023079,0.015798,0.308497,0.000109,  35.069
   175.4,0.023100,0.015837,0.309202,0.000048,  35.047
   175.6,0.023115,0.015871,0.309846,0.000083,  35.028
   175.8,0.023139,0.015905,0.310406,0.000083,  35.011
   176.0,0.023155,0.015937,0.311064,0.000048,  35.002
   176.2,0.023169,0.015967,0.311733,0.000070,  34.998
   176.4,0.023191,0.015995,0.312379,0.000070,  34.962
   176.6,0.023216,0.016018,0.313019,0.000048,  34.937
   176.8,0.023230,0.016045,0.313678,0.000070,  34.916
   177.0,0.023252,0.016073,0.314370,0.000070,  34.881
   177.2,0.023280,0.016103,0.314969,0.000034,  34.865
   177.4,0.023319,0.016133,0.315518,0.000044,  34.839
   177.6,0.023381,0.016165,0.316007,0.000044,  34.810
   177.8,0.023455,0.016198,0.316532,0.000008,  34.791
   178.0,0.023477,0.016228,0.317058,0.000030,  34.760
   178.2,0.023480,0.016251,0.317534,0.000030,  34.738
   178.4,0.023454,0.016276,0.317897,0.000021,  34.712
   178.6,0.023421,0.016346,0.318172,0.000070,  34.683
   178.8,0.023402,0.016429,0.318404,0.000083,  34.658
   179.0,0.023385,0.016528,0.318716,0.000061,  34.618
   179.2,0.023354,0.016571,0.318985,0.000109,  34.593
   179.4,0.023326,0.016587,0.319254,0.000109,  34.564
   179.6,0.023318,0.016582,0.319503,0.000048,  34.534
   179.8,0.023299,0.016579,0.319770,0.000057,  34.496
   180.0,0.023280,0.016563,0.319986,0.000044,  34.463
   180.2,0.023281,0.016552,0.320195,-0.000005,  34.437
   180.4,0.023272,0.016547,0.320386,0.000004,  34.410
   180.6,0.023250,0.016540,0.320544,0.000004,  34.374
   180.8,0.023234,0.016543,0.320658,-0.000045,  34.337
   181.0,0.023210,0.016550,0.320735,-0.000009,  34.304
   181.2,0.023185,0.016554,0.320775,-0.000022,  34.297
   181.4,0.023166,0.016568,0.320775,-0.000009,  34.280
   181.6,0.023152,0.016572,0.320763,-0.000022,  34.233
   181.8,0.023126,0.016574,0.320707,-0.000022,  34.204
   182.0,0.023108,0.016573,0.320530,-0.000009,  34.162
   182.2,0.023097,0.016573,0.320283,-0.000022,  34.127
   182.4,0.023133,0.016573,0.319974,-0.000036,  34.095
   182.6,0.023203,0.016579,0.319544,-0.000022,  34.053
   182.8,0.023311,0.016580,0.319518,-0.000071,  34.027
   183.0,0.023307,0.016582,0.319544,-0.000036,  33.978
   183.2,0.023276,0.016589,0.319669,-0.000022,  33.946
   183.4,0.023219,0.016604,0.319788,-0.000071,  33.916
   183.6,0.023151,0.016642,0.319906,-0.000036,  33.874
   183.8,0.023081,0.016680,0.320069,0.000004,  33.843
   184.0,0.022997,0.016714,0.319779,0.000008,  33.792
   184.2,0.022922,0.016757,0.319231,0.000096,  33.761
   184.4,0.022858,0.016805,0.318477,0.000109,  33.726
   184.6,0.022791,0.016810,0.318255,0.000061,  33.677
   184.8,0.022729,0.016798,0.318151,0.000057,  33.633
   185.0,0.022683,0.016769,0.318158,0.000044,  33.591
   185.2,0.022648,0.016724,0.317989,-0.000018,  33.552
   185.4,0.022586,0.016689,0.317795,-0.000022,  33.509
   185.6,0.022531,0.016640,0.317518,-0.000036,  33.463
   185.8,0.022483,0.016597,0.317160,-0.000084,  33.422
   186.0,0.022421,0.016562,0.316754,-0.000062,  33.366
   186.2,0.022360,0.016529,0.316235,-0.000062,  33.338
   186.4,0.022299,0.016506,0.315804,-0.000097,  33.320
   186.6,0.022250,0.016481,0.315349,-0.000062,  33.288
   186.8,0.022210,0.016460,0.314901,-0.000062,  33.245
   187.0,0.022174,0.016447,0.314203,-0.000111,  33.189
   187.2,0.022150,0.016414,0.313345,-0.000088,  33.157
   187.4,0.022110,0.016382,0.312351,-0.000101,  33.112
   187.6,0.022065,0.016348,0.311879,-0.000137,  33.069
   187.8,0.022019,0.016315,0.311568,-0.000101,  33.015
   188.0,0.022027,0.016295,0.311431,-0.000115,  32.959
   188.2,0.022070,0.016270,0.310812,-0.000150,  32.921
   188.4,0.022144,0.016239,0.310035,-0.000101,  32.876
   188.6,0.022091,0.016224,0.309106,-0.000075,  32.828
   188.8,0.022003,0.016203,0.308837,-0.000084,  32.782
   189.0,0.021876,0.016247,0.308827,-0.000009,  32.726
   189.2,0.021771,0.016325,0.309031,0.000030,  32.684
   189.4,0.021661,0.016443,0.308705,0.000008,  32.635
   189.6,0.021553,0.016443,0.308218,0.000044,  32.581
   189.8,0.021454,0.016401,0.307547,0.000044,  32.527
   190.0,0.021366,0.016321,0.306838,-0.000018,  32.460
   190.2,0.021291,0.016255,0.306013,-0.000036,  32.423
   190.4,0.021208,0.016179,0.305024,-0.000062,  32.372
   190.6,0.021138,0.016090,0.304178,-0.000075,  32.318
   190.8,0.021081,0.016019,0.303334,-0.000088,  32.273
   191.0,0.020998,0.015950,0.302467,-0.000101,  32.209
   191.2,0.020913,0.015885,0.301738,-0.000101,  32.164
   191.4,0.020828,0.015835,0.301059,-0.000101,  32.111
   191.6,0.020748,0.015786,0.300437,-0.000101,  32.082
   191.8,0.020672,0.015744,0.299847,-0.000101,  32.045
   192.0,0.020599,0.015694,0.299043,-0.000137,  31.982
   192.2,0.020530,0.015639,0.298184,-0.000115,  31.936
   192.4,0.020457,0.015584,0.297247,-0.000101,  31.882
   192.6,0.020387,0.015536,0.296375,-0.000150,  31.837
   192.8,0.020399,0.015480,0.295432,-0.000141,  31.781
   193.0,0.020451,0.015436,0.294480,-0.000128,  31.715
   193.2,0.020549,0.015397,0.293630,-0.000163,  31.662
   193.4,0.020514,0.015366,0.292806,-0.000141,  31.607
   193.6,0.020451,0.015332,0.291984,-0.000128,  31.552
   193.8,0.020346,0.015312,0.291146,-0.000163,  31.495
   194.0,0.020230,0.015294,0.290316,-0.000141,  31.431
   194.2,0.020103,0.015277,0.289471,-0.000088,  31.388
   194.4,0.019948,0.015276,0.288988,-0.000071,  31.325
   194.6,0.019820,0.015285,0.288641,0.000030,  31.268
   194.8,0.019708,0.015303,0.288437,0.000044,  31.209
   195.0,0.019590,0.015343,0.287616,-0.000005,  31.136
   195.2,0.019483,0.015294,0.286542,-0.000009,  31.086
   195.4,0.019405,0.015212,0.285188,-0.000022,  31.020
   195.6,0.019326,0.015095,0.284003,-0.000097,  30.964
   195.8,0.019248,0.015010,0.282781,-0.000088,  30.902
   196.0,0.019171,0.014921,0.281529,-0.000101,  30.828
   196.2,0.019111,0.014826,0.280384,-0.000150,  30.780
   196.4,0.019054,0.014750,0.279242,-0.000141,  30.717
   196.6,0.018969,0.014679,0.278149,-0.000154,  30.662
   196.8,0.018872,0.014610,0.277090,-0.000154,  30.614
   197.0,0.018779,0.014549,0.276033,-0.000132,  30.569
   197.2,0.018684,0.014491,0.274955,-0.000132,  30.526
   197.4,0.018603,0.014436,0.273843,-0.000119,  30.456
   197.6,0.018521,0.014370,0.272741,-0.000132,  30.399
   197.8,0.018439,0.014304,0.271582,-0.000132,  30.334
   198.0,0.018366,0.014236,0.270479,-0.000119,  30.265
   198.2,0.018296,0.014174,0.269424,-0.000132,  30.212
   198.4,0.018287,0.014107,0.268385,-0.000132,  30.149
   198.6,0.018311,0.014050,0.267403,-0.000119,  30.082
   198.8,0.018375,0.013993,0.266462,-0.000167,  30.028
   199.0,0.018308,0.013928,0.265500,-0.000154,  29.944
   199.2,0.018193,0.013873,0.264801,-0.000128,  29.896
   199.4,0.018043,0.013897,0.264230,-0.000101,  29.836
   199.6,0.017915,0.013964,0.263749,-0.000062,  29.767
   199.8,0.017792,0.014071,0.263060,-0.000036,  29.704
   200.0,0.017660,0.014043,0.262321,-0.000045,  29.626
   200.2,0.017538,0.013975,0.261523,0.000004,  29.574
   200.4,0.017433,0.013854,0.260674,0.000004,  29.506
   200.6,0.017330,0.013756,0.259441,-0.000045,  29.442
   200.8,0.017230,0.013648,0.258004,-0.000049,  29.373
   201.0,0.017142,0.013531,0.256357,-0.000062,  29.289
   201.2,0.017071,0.013437,0.254938,-0.000111,  29.239
   201.4,0.016973,0.013338,0.253546,-0.000101,  29.172
   201.6,0.016877,0.013260,0.252158,-0.000115,  29.108
   201.8,0.016781,0.013189,0.251016,-0.000150,  29.040
   202.0,0.016690,0.013130,0.249972,-0.000101,  28.983
   202.2,0.016600,0.013079,0.249045,-0.000101,  28.956
   202.4,0.016509,0.013043,0.247962,-0.000137,  28.902
   202.6,0.016415,0.012975,0.246852,-0.000101,  28.833
   202.8,0.016331,0.012900,0.245673,-0.000101,  28.775
   203.0,0.016247,0.012825,0.244468,-0.000137,  28.701
   203.2,0.016235,0.012756,0.243273,-0.000115,  28.644
   203.4,0.016256,0.012683,0.242046,-0.000101,  28.579
   203.6,0.016320,0.012622,0.240944,-0.000137,  28.512
   203.8,0.016285,0.012558,0.239944,-0.000115,  28.450
   204.0,0.016206,0.012491,0.238996,-0.000088,  28.368
   204.2,0.016092,0.012430,0.237640,-0.000124,  28.315
   204.4,0.015999,0.012384,0.236083,-0.000088,  28.253
   204.6,0.015906,0.012342,0.234337,-0.000049,  28.193
   204.8,0.015800,0.012310,0.233639,-0.000032,  28.126
   205.0,0.015689,0.012301,0.233353,0.000021,  28.050
   205.2,0.015569,0.012296,0.233500,0.000034,  27.998
   205.4,0.015446,0.012315,0.232649,0.000034,  27.931
   205.6,0.015314,0.012253,0.231508,0.000008,  27.867
   205.8,0.015205,0.012162,0.230100,-0.000005,  27.798
   206.0,0.015116,0.012045,0.228868,-0.000018,  27.717
   206.2,0.015035,0.011947,0.227571,-0.000045,  27.669
   206.4,0.014936,0.011839,0.226230,-0.000058,  27.603
   206.6,0.014843,0.011740,0.224989,-0.000071,  27.537
   206.8,0.014744,0.011653,0.223738,-0.000084,  27.472
   207.0,0.014642,0.011564,0.222504,-0.000084,  27.394
   207.2,0.014550,0.011494,0.221388,-0.000071,  27.355
   207.4,0.014451,0.011419,0.220343,-0.000084,  27.319
   207.6,0.014354,0.011341,0.219348,-0.000084,  27.271
   207.8,0.014271,0.011270,0.218200,-0.000120,  27.200
   208.0,0.014181,0.011195,0.217029,-0.000071,  27.129
   208.2,0.014090,0.011115,0.215787,-0.000084,  27.087
   208.4,0.014013,0.011035,0.214769,-0.000084,  27.023
   208.6,0.013930,0.010960,0.213834,-0.000084,  26.958
   208.8,0.013902,0.010890,0.212968,-0.000097,  26.892
   209.0,0.013918,0.010820,0.212183,-0.000097,  26.816
   209.2,0.013954,0.010747,0.211127,-0.000097,  26.765
   209.4,0.013875,0.010683,0.210021,-0.000097,  26.705
   209.6,0.013767,0.010617,0.208839,-0.000084,  26.648
   209.8,0.013618,0.010617,0.208126,-0.000058,  26.589
   210.0,0.013488,0.010660,0.207618,-0.000032,  26.515
   210.2,0.013359,0.010731,0.207282,-0.000005,  26.465
   210.4,0.013232,0.010710,0.206415,0.000021,  26.399
   210.6,0.013111,0.010664,0.205367,0.000034,  26.334
   210.8,0.013001,0.010596,0.204113,0.000034,  26.271
   211.0,0.012900,0.010493,0.202882,0.000021,  26.198
   211.2,0.012798,0.010395,0.201549,-0.000018,  26.152
   211.4,0.012708,0.010283,0.200143,-0.000032,  26.090
   211.6,0.012632,0.010161,0.198826,-0.000058,  26.033
   211.8,0.012529,0.010055,0.197493,-0.000071,  25.972
   212.0,0.012431,0.009961,0.196198,-0.000058,  25.897
   212.2,0.012333,0.009872,0.195097,-0.000071,  25.854
   212.4,0.012250,0.009787,0.194067,-0.000071,  25.798
   212.6,0.012181,0.009715,0.193148,-0.000058,  25.767
   212.8,0.012113,0.009648,0.191703,-0.000071,  25.728
   213.0,0.012059,0.009571,0.190021,-0.000071,  25.647
   213.2,0.011979,0.009494,0.188134,-0.000071,  25.608
   213.4,0.011895,0.009414,0.186997,-0.000071,  25.555
   213.6,0.011809,0.009338,0.186079,-0.000084,  25.496
   213.8,0.011781,0.009266,0.185433,-0.000084,  25.439
   214.0,0.011787,0.009194,0.184499,-0.000084,  25.371
   214.2,0.011824,0.009121,0.183551,-0.000097,  25.326
   214.4,0.011769,0.009055,0.182574,-0.000097,  25.266
   214.6,0.011698,0.008992,0.181592,-0.000097,  25.212
   214.8,0.011603,0.008935,0.180590,-0.000097,  25.153
   215.0,0.011486,0.008890,0.179578,-0.000071,  25.093
   215.2,0.011361,0.008847,0.178905,-0.000018,  25.047
   215.4,0.011228,0.008829,0.178402,0.000034,  24.990
   215.6,0.011108,0.008829,0.178059,0.000048,  24.930
   215.8,0.010998,0.008841,0.177154,0.000025,  24.884
   216.0,0.010901,0.008785,0.176030,0.000048,  24.808
   216.2,0.010805,0.008692,0.174702,0.000021,  24.763
   216.4,0.010716,0.008576,0.173482,0.000008,  24.714
   216.6,0.010643,0.008483,0.172195,-0.000018,  24.654
   216.8,0.010550,0.008390,0.170846,-0.000045,  24.599
   217.0,0.010464,0.008292,0.169785,-0.000045,  24.534
   217.2,0.010379,0.008206,0.168827,-0.000071,  24.493
   217.4,0.010283,0.008137,0.168011,-0.000071,  24.437
   217.6,0.010197,0.008067,0.167280,-0.000071,  24.391
   217.8,0.010114,0.007995,0.165790,-0.000071,  24.355
   218.0,0.010020,0.007934,0.164044,-0.000084,  24.313
   218.2,0.009943,0.007873,0.162050,-0.000084,  24.264
   218.4,0.009869,0.007817,0.160929,-0.000084,  24.215
   218.6,0.009788,0.007757,0.160091,-0.000097,  24.169
   218.8,0.009714,0.007710,0.159563,-0.000097,  24.120
   219.0,0.009647,0.007662,0.158784,-0.000097,  24.056
   219.2,0.009632,0.007598,0.158024,-0.000097,  24.008
   219.4,0.009644,0.007532,0.157289,-0.000097,  23.959
   219.6,0.009682,0.007468,0.156437,-0.000097,  23.907
   219.8,0.009633,0.007402,0.155546,-0.000097,  23.852
   220.0,0.009538,0.007342,0.154592,-0.000084,  23.788
   220.2,0.009408,0.007286,0.153995,-0.000071,  23.752
   220.4,0.009307,0.007288,0.153566,-0.000045,  23.698
   220.6,0.009201,0.007326,0.153291,-0.000018,  23.652
   220.8,0.009081,0.007393,0.152553,-0.000005,  23.595
   221.0,0.008998,0.007359,0.151650,0.000008,  23.529
   221.2,0.008923,0.007298,0.150589,0.000008,  23.490
   221.4,0.008865,0.007198,0.149545,0.000008,  23.439
   221.6,0.008818,0.007107,0.148427,-0.000032,  23.390
   221.8,0.008750,0.007023,0.147227,-0.000032,  23.336
   222.0,0.008683,0.006924,0.146057,-0.000045,  23.280
   222.2,0.008609,0.006840,0.144870,-0.000058,  23.234
   222.4,0.008539,0.006761,0.143667,-0.000045,  23.184
   222.6,0.008465,0.006688,0.142555,-0.000045,  23.138
   222.8,0.008378,0.006620,0.141497,-0.000058,  23.085
   223.0,0.008307,0.006564,0.140465,-0.000045,  23.049
   223.2,0.008239,0.006513,0.139371,-0.000045,  23.023
   223.4,0.008178,0.006447,0.138264,-0.000058,  22.977
   223.6,0.008109,0.006386,0.137126,-0.000045,  22.928
   223.8,0.008047,0.006326,0.136174,-0.000045,  22.881
   224.0,0.007992,0.006266,0.135324,-0.000058,  22.821
   224.2,0.007974,0.006210,0.134562,-0.000058,  22.788
   224.4,0.007989,0.006162,0.133794,-0.000093,  22.735
   224.6,0.008029,0.006108,0.133068,-0.000045,  22.689
   224.8,0.007992,0.006051,0.132352,-0.000058,  22.632
   225.0,0.007946,0.006009,0.131727,-0.000045,  22.577
   225.2,0.007875,0.005964,0.131143,-0.000045,  22.539
   225.4,0.007789,0.005921,0.130626,-0.000058,  22.490
   225.6,0.007694,0.005889,0.130157,-0.000018,  22.446
   225.8,0.007582,0.005875,0.129662,0.000008,  22.394
   226.0,0.007490,0.005882,0.129204,0.000048,  22.334
   226.2,0.007407,0.005905,0.128778,0.000061,  22.300
   226.4,0.007329,0.005859,0.127953,0.000048,  22.247
   226.6,0.007254,0.005794,0.126917,0.000057,  22.195
   226.8,0.007189,0.005712,0.125687,0.000044,  22.149
   227.0,0.007140,0.005642,0.124465,-0.000005,  22.086
   227.2,0.007071,0.005574,0.123163,0.000017,  22.052
   227.4,0.007013,0.005502,0.121759,0.000004,  22.003
   227.6,0.006952,0.005448,0.120807,-0.000032,  21.955
   227.8,0.006884,0.005401,0.120053,0.000004,  21.903
   228.0,0.006829,0.005361,0.119466,0.000017,  21.849
   228.2,0.006764,0.005332,0.118739,-0.000032,  21.820
   228.4,0.006698,0.005288,0.118044,-0.000009,  21.799
   228.6,0.006652,0.005238,0.117349,0.000004,  21.751
   228.8,0.006602,0.005199,0.116534,-0.000045,  21.703
   229.0,0.006539,0.005152,0.115710,-0.000009,  21.647
   229.2,0.006493,0.005103,0.114807,0.000004,  21.616
   229.4,0.006443,0.005056,0.113988,-0.000045,  21.567
   229.6,0.006426,0.005009,0.113200,-0.000009,  21.520
   229.8,0.006427,0.004962,0.112407,0.000004,  21.472
   230.0,0.006452,0.004920,0.111510,-0.000032,  21.408
   230.2,0.006493,0.004874,0.110572,0.000004,  21.374
   230.4,0.006449,0.004831,0.109564,0.000030,  21.325
   230.6,0.006381,0.004797,0.108989,0.000008,  21.276
   230.8,0.006293,0.004805,0.108572,0.000044,  21.237
   231.0,0.006216,0.004841,0.108322,0.000070,  21.180
   231.2,0.006146,0.004909,0.107799,0.000061,  21.142
   231.4,0.006064,0.004891,0.107246,0.000096,  21.092
   231.6,0.005989,0.004841,0.106608,0.000096,  21.046
   231.8,0.005935,0.004771,0.105374,0.000061,  20.998
   232.0,0.005873,0.004713,0.103842,0.000070,  20.941
   232.2,0.005813,0.004645,0.101985,0.000070,  20.910
   232.4,0.005773,0.004578,0.101105,0.000034,  20.856
   232.6,0.005726,0.004517,0.100532,0.000008,  20.810
   232.8,0.005672,0.004461,0.100296,0.000008,  20.766
   233.0,0.005619,0.004410,0.099777,0.000021,  20.707
   233.2,0.005566,0.004360,0.099235,0.000008,  20.671
   233.4,0.005513,0.004322,0.098716,0.000008,  20.643
   233.6,0.005466,0.004284,0.098153,-0.000028,  20.614
   233.8,0.005423,0.004242,0.097590,0.000008,  20.573
   234.0,0.005372,0.004204,0.096989,0.000008,  20.521
   234.2,0.005331,0.004167,0.096448,0.000008,  20.488
   234.4,0.005299,0.004127,0.095939,-0.000005,  20.442
   234.6,0.005289,0.004091,0.095452,-0.000005,  20.403
   234.8,0.005301,0.004055,0.094995,-0.000005,  20.353
   235.0,0.005340,0.004024,0.094364,-0.000005,  20.294
   235.2,0.005322,0.003987,0.093680,0.000030,  20.263
   235.4,0.005292,0.003956,0.092966,0.000030,  20.215
   235.6,0.005255,0.003924,0.092370,-0.000005,  20.171
   235.8,0.005196,0.003893,0.091819,0.000030,  20.129
   236.0,0.005131,0.003866,0.091300,0.000044,  20.082
   236.2,0.005062,0.003865,0.090954,0.000048,  20.042
   236.4,0.004996,0.003883,0.090705,0.000123,  19.998
   236.6,0.004940,0.003917,0.090553,0.000136,  19.952
   236.8,0.004895,0.003906,0.089927,0.000100,  19.909
   237.0,0.004847,0.003879,0.089135,0.000123,  19.852
   237.2,0.004806,0.003841,0.088158,0.000136,  19.819
   237.4,0.004774,0.003796,0.087372,0.000087,  19.776
   237.6,0.004726,0.003753,0.086624,0.000096,  19.728
   237.8,0.004683,0.003709,0.085901,0.000109,  19.688
   238.0,0.004643,0.003658,0.085194,0.000061,  19.638
   238.2,0.004592,0.003620,0.084509,0.000083,  19.596
   238.4,0.004554,0.003582,0.083833,0.000096,  19.556
   238.6,0.004520,0.003545,0.083225,0.000048,  19.519
   238.8,0.004484,0.003514,0.082625,0.000083,  19.499
   239.0,0.004458,0.003487,0.082063,0.000096,  19.455
   239.2,0.004432,0.003460,0.081188,0.000048,  19.420
   239.4,0.004411,0.003434,0.080138,0.000083,  19.385
   239.6,0.004379,0.003402,0.078942,0.000096,  19.339
   239.8,0.004344,0.003373,0.078341,0.000048,  19.295
   240.0,0.004306,0.003346,0.077948,0.000083,  19.246
   240.2,0.004302,0.003317,0.077776,0.000096,  19.218
   240.4,0.004322,0.003286,0.077339,0.000048,  19.175
   240.6,0.004370,0.003259,0.076879,0.000083,  19.131
   240.8,0.004343,0.003235,0.076391,0.000096,  19.085
   241.0,0.004303,0.003206,0.076078,0.000061,  19.037
   241.2,0.004242,0.003219,0.075839,0.000096,  19.005
   241.4,0.004189,0.003260,0.075658,0.000123,  18.965
   241.6,0.004146,0.003316,0.075287,0.000100,  18.923
   241.8,0.004100,0.003310,0.074858,0.000149,  18.882
   242.0,0.004052,0.003282,0.074364,0.000149,  18.826
   242.2,0.004014,0.003235,0.073739,0.000114,  18.799
   242.4,0.003986,0.003198,0.073021,0.000136,  18.755
   242.6,0.003950,0.003150,0.072210,0.000136,  18.712
   242.8,0.003921,0.003097,0.071626,0.000136,  18.668
   243.0,0.003888,0.003054,0.071093,0.000123,  18.624
   243.2,0.003849,0.003018,0.070633,0.000109,  18.584
   243.4,0.003820,0.002983,0.070180,0.000109,  18.546
   243.6,0.003782,0.002951,0.069799,0.000123,  18.507
   243.8,0.003743,0.002921,0.069418,0.000109,  18.471
   244.0,0.003721,0.002898,0.069095,0.000123,  18.444
   244.2,0.003695,0.002870,0.068593,0.000087,  18.423
   244.4,0.003662,0.002849,0.068041,0.000123,  18.373
   244.6,0.003643,0.002820,0.067441,0.000136,  18.338
   244.8,0.003616,0.002792,0.066761,0.000100,  18.297
   245.0,0.003610,0.002770,0.065997,0.000123,  18.245
   245.2,0.003625,0.002750,0.065177,0.000136,  18.217
   245.4,0.003643,0.002725,0.064495,0.000100,  18.173
   245.6,0.003633,0.002705,0.063863,0.000123,  18.134
   245.8,0.003622,0.002689,0.063275,0.000136,  18.099
   246.0,0.003596,0.002674,0.062872,0.000100,  18.051
   246.2,0.003560,0.002648,0.062555,0.000123,  18.014
   246.4,0.003529,0.002636,0.062358,0.000149,  17.983
   246.6,0.003486,0.002618,0.062210,0.000140,  17.945
   246.8,0.003441,0.002627,0.062133,0.000189,  17.902
   247.0,0.003403,0.002642,0.062140,0.000202,  17.854
   247.2,0.003372,0.002676,0.061695,0.000179,  17.823
   247.4,0.003336,0.002665,0.061068,0.000189,  17.787
   247.6,0.003310,0.002641,0.060238,0.000189,  17.748
   247.8,0.003293,0.002606,0.059760,0.000153,  17.710
   248.0,0.003273,0.002573,0.059340,0.000162,  17.660
   248.2,0.003252,0.002541,0.058997,0.000162,  17.627
   248.4,0.003238,0.002506,0.058605,0.000127,  17.595
   248.6,0.003223,0.002477,0.058192,0.000149,  17.557
   248.8,0.003200,0.002453,0.057780,0.000136,  17.517
   249.0,0.003176,0.002427,0.057354,0.000100,  17.478
   249.2,0.003150,0.002407,0.056907,0.000136,  17.464
   249.4,0.003123,0.002401,0.056433,0.000123,  17.440
   249.6,0.003093,0.002387,0.056036,0.000087,  17.400
   249.8,0.003069,0.002367,0.055639,0.000136,  17.365
   250.0,0.003042,0.002353,0.055271,0.000136,  17.320
   250.2,0.003016,0.002334,0.054896,0.000100,  17.292
   250.4,0.002996,0.002316,0.054500,0.000136,  17.255
   250.6,0.002995,0.002298,0.054119,0.000136,  17.218
   250.8,0.003016,0.002283,0.053787,0.000100,  17.180
   251.0,0.003058,0.002267,0.053440,0.000136,  17.141
   251.2,0.003042,0.002246,0.053122,0.000136,  17.111
   251.4,0.003010,0.002228,0.052818,0.000100,  17.077
   251.6,0.002970,0.002242,0.052542,0.000136,  17.038
   251.8,0.002934,0.002261,0.052266,0.000136,  17.003
   252.0,0.002909,0.002309,0.051776,0.000149,  16.959
   252.2,0.002881,0.002306,0.051218,0.000162,  16.930
   252.4,0.002847,0.002292,0.050579,0.000162,  16.900
   252.6,0.002828,0.002266,0.050167,0.000175,  16.858
   252.8,0.002802,0.002241,0.049838,0.000175,  16.827
   253.0,0.002777,0.002211,0.049556,0.000162,  16.778
   253.2,0.002767,0.002178,0.049124,0.000162,  16.755
   253.4,0.002749,0.002149,0.048646,0.000140,  16.717
   253.6,0.002725,0.002115,0.048147,0.000162,  16.683
   253.8,0.002711,0.002092,0.047568,0.000162,  16.647
   254.0,0.002685,0.002074,0.047308,0.000140,  16.604
   254.2,0.002661,0.002053,0.047096,0.000162,  16.581
   254.4,0.002646,0.002041,0.046980,0.000162,  16.558
   254.6,0.002626,0.002026,0.046795,0.000127,  16.541
   254.8,0.002604,0.002010,0.046570,0.000149,  16.506
   255.0,0.002597,0.001995,0.046344,0.000149,  16.462
   255.2,0.002589,0.001982,0.046051,0.000114,  16.435
   255.4,0.002579,0.001966,0.045698,0.000149,  16.405
   255.6,0.002580,0.001957,0.045304,0.000149,  16.374
   255.8,0.002583,0.001945,0.044924,0.000114,  16.336
   256.0,0.002576,0.001931,0.044558,0.000149,  16.294
   256.2,0.002580,0.001923,0.044159,0.000149,  16.268
   256.4,0.002577,0.001909,0.043726,0.000114,  16.237
   256.6,0.002556,0.001892,0.043287,0.000149,  16.202
   256.8,0.002539,0.001872,0.042821,0.000149,  16.171
   257.0,0.002510,0.001850,0.042693,0.000162,  16.133
   257.2,0.002483,0.001857,0.042692,0.000211,  16.110
   257.4,0.002466,0.001872,0.042847,0.000211,  16.070
   257.6,0.002446,0.001908,0.042617,0.000211,  16.039
   257.8,0.002431,0.001908,0.042246,0.000211,  16.002
   258.0,0.002413,0.001888,0.041728,0.000211,  15.963
   258.2,0.002408,0.001863,0.041351,0.000211,  15.935
   258.4,0.002402,0.001848,0.040981,0.000211,  15.906
   258.6,0.002391,0.001828,0.040592,0.000211,  15.870
   258.8,0.002379,0.001811,0.040249,0.000211,  15.841
   259.0,0.002362,0.001795,0.039900,0.000211,  15.801
   259.2,0.002340,0.001774,0.039592,0.000211,  15.774
   259.4,0.002335,0.001759,0.039310,0.000211,  15.741
   259.6,0.002318,0.001747,0.039049,0.000211,  15.724
   259.8,0.002299,0.001737,0.038814,0.000211,  15.707
   260.0,0.002295,0.001730,0.038533,0.000211,  15.664
   260.2,0.002283,0.001718,0.038245,0.000211,  15.639
   260.4,0.002264,0.001715,0.037938,0.000211,  15.609
   260.6,0.002257,0.001701,0.037658,0.000211,  15.581
   260.8,0.002242,0.001685,0.037377,0.000211,  15.547
   261.0,0.002247,0.001679,0.037091,0.000211,  15.508
   261.2,0.002274,0.001663,0.036580,0.000211,  15.486
   261.4,0.002309,0.001649,0.035945,0.000175,  15.452
   261.6,0.002299,0.001646,0.035212,0.000175,  15.425
   261.8,0.002289,0.001644,0.034948,0.000175,  15.391
   262.0,0.002257,0.001650,0.034868,0.000175,  15.355
   262.2,0.002229,0.001672,0.034959,0.000175,  15.331
   262.4,0.002216,0.001706,0.035234,0.000189,  15.298
   262.6,0.002193,0.001706,0.035174,0.000153,  15.272
   262.8,0.002168,0.001701,0.035073,0.000202,  15.239
   263.0,0.002158,0.001688,0.034953,0.000215,  15.203
   263.2,0.002140,0.001669,0.034767,0.000166,  15.178
   263.4,0.002124,0.001657,0.034495,0.000202,  15.147
   263.6,0.002120,0.001637,0.034191,0.000202,  15.117
   263.8,0.002111,0.001621,0.033906,0.000166,  15.088
   264.0,0.002095,0.001606,0.033582,0.000189,  15.048
   264.2,0.002091,0.001597,0.033245,0.000189,  15.030
   264.4,0.002086,0.001589,0.033027,0.000166,  14.997
   264.6,0.002073,0.001573,0.032841,0.000189,  14.970
   264.8,0.002064,0.001567,0.032708,0.000202,  14.951
   265.0,0.002065,0.001558,0.032470,0.000166,  14.930
   265.2,0.002053,0.001546,0.032200,0.000202,  14.905
   265.4,0.002044,0.001537,0.031897,0.000215,  14.876
   265.6,0.002045,0.001533,0.031654,0.000179,  14.851
   265.8,0.002038,0.001523,0.031410,0.000215,  14.820
   266.0,0.002035,0.001509,0.031173,0.000228,  14.786
   266.2,0.002042,0.001503,0.030540,0.000193,  14.762
   266.4,0.002042,0.001495,0.029715,0.000215,  14.733
   266.6,0.002045,0.001493,0.028671,0.000228,  14.708
   266.8,0.002048,0.001491,0.028314,0.000193,  14.681
   267.0,0.002048,0.001480,0.028215,0.000215,  14.642
   267.2,0.002042,0.001469,0.028323,0.000228,  14.623
   267.4,0.002030,0.001450,0.028444,0.000193,  14.597
   267.6,0.002013,0.001454,0.028676,0.000215,  14.573
   267.8,0.001997,0.001475,0.029032,0.000228,  14.546
   268.0,0.001983,0.001512,0.029023,0.000206,  14.512
   268.2,0.001975,0.001507,0.028878,0.000241,  14.488
   268.4,0.001960,0.001500,0.028609,0.000255,  14.461
   268.6,0.001951,0.001487,0.028413,0.000219,  14.434
   268.8,0.001949,0.001471,0.028184,0.000241,  14.402
   269.0,0.001936,0.001462,0.027929,0.000255,  14.372
   269.2,0.001930,0.001444,0.027700,0.000219,  14.346
   269.4,0.001927,0.001431,0.027472,0.000241,  14.323
   269.6,0.001915,0.001427,0.027245,0.000255,  14.296
   269.8,0.001920,0.001416,0.027126,0.000219,  14.268
   270.0,0.001918,0.001408,0.027046,0.000241,  14.247
   270.2,0.001908,0.001416,0.027024,0.000241,  14.235
   270.4,0.001912,0.001416,0.026752,0.000255,  14.210
   270.6,0.001906,0.001409,0.026350,0.000255,  14.185
   270.8,0.001894,0.001405,0.025854,0.000241,  14.153
   271.0,0.001895,0.001395,0.025563,0.000255,  14.129
   271.2,0.001883,0.001385,0.025332,0.000255,  14.105
   271.4,0.001885,0.001383,0.025131,0.000255,  14.080
   271.6,0.001912,0.001376,0.024983,0.000255,  14.052
   271.8,0.001938,0.001371,0.024911,0.000219,  14.025
   272.0,0.001932,0.001372,0.024883,0.000255,  13.992
   272.2,0.001930,0.001371,0.024912,0.000255,  13.976
   272.4,0.001906,0.001380,0.024879,0.000219,  13.948
   272.6,0.001888,0.001390,0.024813,0.000241,  13.925
   272.8,0.001883,0.001410,0.024754,0.000268,  13.899
   273.0,0.001869,0.001417,0.024581,0.000232,  13.868
   273.2,0.001853,0.001419,0.024325,0.000268,  13.846
   273.4,0.001848,0.001415,0.024006,0.000281,  13.824
   273.6,0.001842,0.001406,0.023844,0.000245,  13.799
   273.8,0.001830,0.001399,0.023733,0.000268,  13.769
   274.0,0.001821,0.001385,0.023632,0.000268,  13.743
   274.2,0.001812,0.001372,0.023470,0.000232,  13.719
   274.4,0.001799,0.001358,0.023308,0.000268,  13.698
   274.6,0.001791,0.001349,0.023107,0.000268,  13.671
   274.8,0.001786,0.001342,0.022958,0.000245,  13.643
   275.0,0.001776,0.001335,0.022809,0.000281,  13.614
   275.2,0.001770,0.001330,0.022655,0.000281,  13.602
   275.4,0.001771,0.001326,0.022500,0.000259,  13.586
   275.6,0.001768,0.001319,0.022326,0.000281,  13.569
   275.8,0.001766,0.001313,0.022145,0.000281,  13.546
   276.0,0.001763,0.001313,0.022016,0.000259,  13.516
   276.2,0.001760,0.001306,0.021905,0.000245,  13.495
   276.4,0.001757,0.001297,0.021807,0.000245,  13.475
   276.6,0.001748,0.001295,0.021608,0.000259,  13.451
   276.8,0.001736,0.001290,0.021346,0.000245,  13.423
   277.0,0.001730,0.001283,0.021053,0.000245,  13.396
   277.2,0.001742,0.001275,0.020862,0.000259,  13.377
   277.4,0.001755,0.001263,0.020676,0.000245,  13.352
   277.6,0.001748,0.001252,0.020516,0.000245,  13.327
   277.8,0.001749,0.001233,0.020497,0.000259,  13.305
   278.0,0.001738,0.001240,0.020541,0.000245,  13.276
   278.2,0.001725,0.001251,0.020636,0.000245,  13.258
   278.4,0.001717,0.001274,0.020576,0.000259,  13.234
   278.6,0.001706,0.001274,0.020466,0.000259,  13.211
   278.8,0.001693,0.001267,0.020285,0.000259,  13.187
   279.0,0.001694,0.001264,0.019865,0.000236,  13.159
   279.2,0.001688,0.001252,0.019302,0.000259,  13.138
   279.4,0.001678,0.001243,0.018582,0.000259,  13.117
   279.6,0.001676,0.001231,0.018309,0.000259,  13.095
   279.8,0.001668,0.001222,0.018213,0.000259,  13.074
   280.0,0.001658,0.001218,0.018229,0.000245,  13.044
   280.2,0.001659,0.001212,0.018416,0.000245,  13.027
   280.4,0.001653,0.001206,0.018383,0.000259,  13.009
   280.6,0.001640,0.001202,0.018317,0.000245,  12.996
   280.8,0.001642,0.001202,0.018258,0.000245,  12.984
   281.0,0.001639,0.001200,0.018129,0.000259,  12.957
   281.2,0.001626,0.001191,0.017976,0.000245,  12.937
   281.4,0.001627,0.001183,0.017799,0.000245,  12.916
   281.6,0.001621,0.001181,0.017664,0.000259,  12.896
   281.8,0.001620,0.001178,0.017550,0.000259,  12.871
   282.0,0.001639,0.001176,0.017448,0.000259,  12.842
   282.2,0.001650,0.001171,0.017295,0.000259,  12.824
   282.4,0.001643,0.001167,0.017117,0.000259,  12.810
   282.6,0.001644,0.001163,0.016933,0.000259,  12.785
   282.8,0.001630,0.001162,0.016861,0.000259,  12.764
   283.0,0.001617,0.001164,0.016829,0.000245,  12.734
   283.2,0.001606,0.001170,0.016866,0.000245,  12.721
   283.4,0.001594,0.001191,0.016795,0.000259,  12.699
   283.6,0.001581,0.001197,0.016695,0.000259,  12.682
   283.8,0.001575,0.001195,0.016575,0.000259,  12.658
   284.0,0.001576,0.001195,0.016443,0.000259,  12.633
   284.2,0.001571,0.001190,0.016265,0.000259,  12.615
   284.4,0.001571,0.001178,0.016062,0.000259,  12.593
   284.6,0.001565,0.001166,0.015903,0.000259,  12.571
   284.8,0.001562,0.001159,0.015726,0.000245,  12.547
   285.0,0.001563,0.001148,0.015536,0.000245,  12.526
   285.2,0.001554,0.001143,0.015444,0.000259,  12.506
   285.4,0.001548,0.001138,0.015411,0.000245,  12.485
   285.6,0.001539,0.001129,0.015434,0.000245,  12.471
   285.8,0.001533,0.001134,0.015326,0.000272,  12.454
   286.0,0.001530,0.001132,0.015173,0.000272,  12.442
   286.2,0.001520,0.001124,0.014985,0.000272,  12.421
   286.4,0.001514,0.001125,0.014840,0.000285,  12.407
   286.6,0.001515,0.001123,0.014688,0.000272,  12.387
   286.8,0.001500,0.001116,0.014536,0.000285,  12.370
   287.0,0.001485,0.001116,0.014408,0.000285,  12.340
   287.2,0.001478,0.001112,0.014300,0.000285,  12.320
   287.4,0.001468,0.001109,0.014211,0.000285,  12.305
   287.6,0.001471,0.001106,0.014134,0.000263,  12.286
   287.8,0.001476,0.001092,0.014063,0.000298,  12.265
   288.0,0.001467,0.001078,0.014011,0.000285,  12.243
   288.2,0.001468,0.001062,0.013949,0.000298,  12.220
   288.4,0.001459,0.001059,0.013869,0.000285,  12.207
   288.6,0.001446,0.001070,0.013770,0.000259,  12.190
   288.8,0.001447,0.001089,0.013658,0.000272,  12.166
   289.0,0.001439,0.001086,0.013539,0.000272,  12.142
   289.2,0.001429,0.001089,0.013407,0.000285,  12.126
   289.4,0.001427,0.001080,0.013250,0.000298,  12.109
   289.6,0.001418,0.001073,0.013129,0.000285,  12.088
   289.8,0.001406,0.001068,0.013021,0.000285,  12.073
   290.0,0.001410,0.001064,0.012900,0.000298,  12.048
   290.2,0.001401,0.001057,0.012631,0.000285,  12.029
   290.4,0.001391,0.001051,0.012282,0.000285,  12.013
   290.6,0.001398,0.001048,0.011859,0.000298,  11.991
   290.8,0.001398,0.001041,0.011690,0.000285,  11.976
   291.0,0.001388,0.001037,0.011590,0.000285,  11.964
   291.2,0.001392,0.001037,0.011570,0.000298,  11.955
   291.4,0.001389,0.001035,0.011378,0.000285,  11.937
   291.6,0.001377,0.001032,0.011135,0.000285,  11.921
   291.8,0.001381,0.001032,0.010818,0.000298,  11.901
   292.0,0.001375,0.001029,0.010790,0.000285,  11.880
   292.2,0.001371,0.001024,0.010880,0.000285,  11.865
   292.4,0.001383,0.001018,0.011067,0.000298,  11.846
   292.6,0.001386,0.001015,0.010868,0.000298,  11.827
   292.8,0.001379,0.001012,0.010522,0.000298,  11.812
   293.0,0.001378,0.001012,0.010023,0.000311,  11.791
   293.2,0.001373,0.001015,0.009587,0.000298,  11.773
   293.4,0.001367,0.001021,0.009089,0.000285,  11.758
   293.6,0.001361,0.001023,0.008545,0.000298,  11.744
   293.8,0.001361,0.001028,0.008561,0.000285,  11.717
   294.0,0.001355,0.001032,0.008841,0.000285,  11.699
   294.2,0.001350,0.001035,0.009360,0.000298,  11.685
   294.4,0.001344,0.001035,0.009505,0.000298,  11.667
   294.6,0.001338,0.001035,0.009583,0.000298,  11.649
   294.8,0.001328,0.001030,0.009598,0.000311,  11.629
   295.0,0.001325,0.001023,0.009619,0.000311,  11.607
   295.2,0.001329,0.001021,0.009616,0.000311,  11.596
   295.4,0.001319,0.001014,0.009595,0.000325,  11.578
   295.6,0.001314,0.001009,0.009562,0.000311,  11.561
   295.8,0.001312,0.001007,0.009511,0.000311,  11.545
   296.0,0.001302,0.001004,0.009443,0.000325,  11.524
   296.2,0.001299,0.001003,0.009379,0.000311,  11.515
   296.4,0.001303,0.001001,0.009315,0.000311,  11.508
   296.6,0.001303,0.001004,0.009233,0.000311,  11.493
   296.8,0.001300,0.001001,0.009164,0.000276,  11.474
   297.0,0.001308,0.001001,0.009087,0.000325,  11.456
   297.2,0.001297,0.000998,0.009019,0.000325,  11.445
   297.4,0.001275,0.001003,0.008937,0.000338,  11.423
   297.6,0.001262,0.001001,0.008869,0.000338,  11.406
   297.8,0.001259,0.001000,0.008787,0.000338,  11.392
   298.0,0.001258,0.001000,0.008701,0.000338,  11.371
   298.2,0.001276,0.000993,0.008596,0.000338,  11.357
   298.4,0.001269,0.000984,0.008485,0.000338,  11.344
   298.6,0.001266,0.000973,0.008349,0.000338,  11.326
   298.8,0.001258,0.000974,0.008324,0.000311,  11.312
   299.0,0.001251,0.000983,0.008344,0.000285,  11.291
   299.2,0.001248,0.000999,0.008399,0.000298,  11.280
   299.4,0.001242,0.000995,0.008409,0.000298,  11.260
   299.6,0.001229,0.000995,0.008431,0.000311,  11.244
   299.8,0.001230,0.000987,0.008452,0.000325,  11.225
   300.0,0.001229,0.000982,0.008332,0.000325,  11.208
   300.2,0.001216,0.000977,0.008129,0.000325,  11.193
   300.4,0.001220,0.000978,0.007852,0.000338,  11.178
   300.6,0.001217,0.000975,0.007666,0.000338,  11.159
   300.8,0.001207,0.000966,0.007500,0.000338,  11.147
   301.0,0.001208,0.000957,0.007327,0.000338,  11.124
   301.2,0.001202,0.000953,0.007226,0.000338,  11.115
   301.4,0.001193,0.000951,0.007195,0.000338,  11.100
   301.6,0.001197,0.000949,0.007167,0.000338,  11.094
   301.8,0.001191,0.000951,0.007109,0.000338,  11.079
   302.0,0.001188,0.000951,0.007058,0.000338,  11.061
   302.2,0.001175,0.000951,0.006994,0.000338,  11.045
   302.4,0.001176,0.000949,0.006912,0.000338,  11.033
   302.6,0.001170,0.000947,0.006820,0.000338,  11.017
   302.8,0.001170,0.000940,0.006709,0.000338,  11.001
   303.0,0.001177,0.000937,0.006635,0.000338,  10.981
   303.2,0.001177,0.000932,0.006566,0.000338,  10.969
   303.4,0.001168,0.000927,0.006497,0.000338,  10.957
   303.6,0.001162,0.000927,0.006404,0.000325,  10.937
   303.8,0.001156,0.000924,0.006301,0.000347,  10.924
   304.0,0.001143,0.000920,0.006160,0.000360,  10.909
   304.2,0.001139,0.000918,0.006093,0.000311,  10.891
   304.4,0.001130,0.000916,0.006043,0.000347,  10.880
   304.6,0.001120,0.000920,0.006006,0.000360,  10.864
   304.8,0.001121,0.000924,0.005876,0.000311,  10.847
   305.0,0.001118,0.000922,0.005722,0.000347,  10.829
   305.2,0.001112,0.000921,0.005532,0.000347,  10.819
   305.4,0.001107,0.000918,0.005378,0.000347,  10.801
   305.6,0.001102,0.000919,0.005224,0.000360,  10.788
   305.8,0.001092,0.000912,0.005052,0.000347,  10.772
   306.0,0.001092,0.000908,0.004953,0.000360,  10.753
   306.2,0.001092,0.000911,0.004866,0.000360,  10.740
   306.4,0.001082,0.000905,0.004829,0.000347,  10.726
   306.6,0.001089,0.000902,0.004785,0.000360,  10.715
   306.8,0.001089,0.000901,0.004564,0.000325,  10.710
   307.0,0.001079,0.000900,0.004309,0.000373,  10.692
   307.2,0.001083,0.000903,0.004006,0.000373,  10.681
   307.4,0.001080,0.000905,0.003890,0.000338,  10.668
   307.6,0.001065,0.000903,0.003828,0.000373,  10.656
   307.8,0.001054,0.000904,0.003832,0.000373,  10.640
   308.0,0.001028,0.000896,0.003793,0.000338,  10.621
   308.2,0.001018,0.000898,0.003787,0.000373,  10.608
   308.4,0.001028,0.000903,0.003785,0.000387,  10.598
   308.6,0.001037,0.000895,0.003746,0.000351,  10.583
   308.8,0.001033,0.000891,0.003727,0.000387,  10.563
   309.0,0.001043,0.000880,0.003696,0.000387,  10.549
   309.2,0.001043,0.000874,0.003756,0.000338,  10.541
   309.4,0.001036,0.000874,0.003846,0.000334,  10.530
   309.6,0.001043,0.000884,0.003954,0.000334,  10.514
   309.8,0.001037,0.000889,0.003922,0.000298,  10.501
   310.0,0.001027,0.000888,0.003824,0.000334,  10.484
   310.2,0.001031,0.000892,0.003665,0.000347,  10.472
   310.4,0.001028,0.000891,0.003541,0.000311,  10.459
   310.6,0.001025,0.000888,0.003400,0.000347,  10.446
   310.8,0.001018,0.000885,0.003249,0.000360,  10.430
   311.0,0.001022,0.000891,0.003145,0.000325,  10.415
   311.2,0.001022,0.000891,0.003028,0.000360,  10.404
   311.4,0.001022,0.000884,0.002931,0.000373,  10.392
   311.6,0.001019,0.000879,0.002905,0.000338,  10.379
   311.8,0.001016,0.000879,0.002914,0.000360,  10.365
   312.0,0.001016,0.000879,0.002953,0.000373,  10.358
   312.2,0.001016,0.000879,0.002903,0.000338,  10.354
   312.4,0.001020,0.000882,0.002809,0.000373,  10.336
   312.6,0.001018,0.000885,0.002695,0.000387,  10.325
   312.8,0.001011,0.000885,0.002573,0.000364,  10.312
   313.0,0.001015,0.000888,0.002439,0.000400,  10.297
   313.2,0.001015,0.000891,0.002295,0.000413,  10.290
   313.4,0.001015,0.000887,0.002174,0.000391,  10.278
   313.6,0.001022,0.000879,0.002052,0.000400,  10.259
   313.8,0.001024,0.000885,0.001955,0.000400,  10.248
   314.0,0.001022,0.000887,0.001919,0.000364,  10.232
   314.2,0.001016,0.000882,0.001899,0.000387,  10.217
   314.4,0.001016,0.000877,0.001917,0.000387,  10.209
   314.6,0.001009,0.000878,0.001975,0.000387,  10.197
   314.8,0.001003,0.000883,0.002051,0.000387,  10.181
   315.0,0.001003,0.000880,0.002176,0.000387,  10.169
   315.2,0.000993,0.000884,0.002080,0.000400,  10.152
   315.4,0.000994,0.000886,0.001898,0.000387,  10.144
   315.6,0.000991,0.000884,0.001615,0.000400,  10.133
   315.8,0.000982,0.000886,0.001230,0.000400,  10.121
   316.0,0.000986,0.000887,0.001204,0.000377,  10.103
   316.2,0.000986,0.000883,0.001238,0.000400,  10.094
   316.4,0.000976,0.000882,0.001349,0.000400,  10.086
   316.6,0.000983,0.000879,0.001335,0.000377,  10.069
   316.8,0.000976,0.000884,0.001298,0.000364,  10.059
   317.0,0.000976,0.000886,0.001214,0.000364,  10.045
   317.2,0.000970,0.000881,0.001170,0.000377,  10.038
   317.4,0.000960,0.000878,0.001139,0.000377,  10.029
   317.6,0.000964,0.000878,0.001088,0.000377,  10.018
   317.8,0.000958,0.000873,0.001014,0.000391,  10.006
   318.0,0.000940,0.000870,0.000911,0.000391,   9.988
   318.2,0.000932,0.000870,0.000802,0.000391,   9.983
   318.4,0.000912,0.000868,0.000776,0.000404,   9.971
   318.6,0.000902,0.000869,0.000773,0.000391,   9.958
   318.8,0.000908,0.000867,0.000826,0.000391,   9.950
   319.0,0.000911,0.000861,0.000794,0.000404,   9.929
   319.2,0.000907,0.000857,0.000738,0.000391,   9.925
   319.4,0.000907,0.000847,0.000666,0.000377,   9.912
   319.6,0.000914,0.000838,0.000624,0.000364,   9.902
   319.8,0.000914,0.000835,0.000589,0.000338,   9.890
   320.0,0.000917,0.000834,0.000555,0.000338,   9.877
   320.2,0.000924,0.000851,0.000512,0.000351,   9.864
   320.4,0.000921,0.000855,0.000468,0.000364,   9.853
   320.6,0.000924,0.000850,0.000405,0.000377,   9.842
   320.8,0.000921,0.000848,0.000206,0.000391,   9.834
   321.0,0.000918,0.000848,-0.000059,0.000400,   9.819
   321.2,0.000911,0.000848,-0.000400,0.000400,   9.808
   321.4,0.000918,0.000851,-0.000526,0.000377,   9.795
   321.6,0.000912,0.000853,-0.000599,0.000413,   9.783
   321.8,0.000909,0.000850,-0.000606,0.000413,   9.773
   322.0,0.000909,0.000850,-0.000650,0.000377,   9.759
   322.2,0.000913,0.000850,-0.000686,0.000377,   9.750
   322.4,0.000903,0.000848,-0.000730,0.000377,   9.747
   322.6,0.000903,0.000846,-0.000726,0.000391,   9.740
   322.8,0.000906,0.000846,-0.000717,0.000391,   9.728
   323.0,0.000899,0.000851,-0.000689,0.000391,   9.716
   323.2,0.000906,0.000856,-0.000679,0.000355,   9.709
   323.4,0.000903,0.000859,-0.000717,0.000404,   9.695
   323.6,0.000899,0.000857,-0.000754,0.000391,   9.686
   323.8,0.000893,0.000857,-0.000780,0.000391,   9.671
   324.0,0.000888,0.000852,-0.000774,0.000391,   9.657
   324.2,0.000881,0.000849,-0.000788,0.000391,   9.652
   324.4,0.000881,0.000846,-0.000783,0.000391,   9.640
   324.6,0.000885,0.000841,-0.000753,0.000391,   9.635
   324.8,0.000881,0.000827,-0.000718,0.000377,   9.619
   325.0,0.000881,0.000823,-0.000683,0.000377,   9.608
   325.2,0.000888,0.000820,-0.000725,0.000377,   9.601
   325.4,0.000884,0.000825,-0.000839,0.000377,   9.588
   325.6,0.000881,0.000831,-0.000987,0.000377,   9.579
   325.8,0.000888,0.000833,-0.001090,0.000391,   9.567
   326.0,0.000881,0.000833,-0.001198,0.000391,   9.555
   326.2,0.000885,0.000838,-0.001300,0.000404,   9.551
   326.4,0.000886,0.000837,-0.001326,0.000404,   9.539
   326.6,0.000882,0.000841,-0.001305,0.000404,   9.528
   326.8,0.000892,0.000841,-0.001247,0.000417,   9.521
   327.0,0.000894,0.000843,-0.001313,0.000404,   9.509
   327.2,0.000897,0.000843,-0.001433,0.000439,   9.498
   327.4,0.000897,0.000841,-0.001606,0.000452,   9.490
   327.6,0.000907,0.000843,-0.001650,0.000417,   9.480
   327.8,0.000903,0.000844,-0.001658,0.000466,   9.476
   328.0,0.000900,0.000846,-0.001618,0.000479,   9.465
   328.2,0.000900,0.000849,-0.001679,0.000430,   9.451
   328.4,0.000894,0.000849,-0.001775,0.000466,   9.447
   328.6,0.000886,0.000857,-0.001893,0.000479,   9.436
   328.8,0.000868,0.000856,-0.001930,0.000430,   9.428
   329.0,0.000858,0.000858,-0.001942,0.000430,   9.416
   329.2,0.000858,0.000855,-0.001956,0.000443,   9.409
   329.4,0.000865,0.000856,-0.002005,0.000430,   9.392
   329.6,0.000864,0.000852,-0.002071,0.000430,   9.391
   329.8,0.000867,0.000843,-0.002154,0.000430,   9.381
   330.0,0.000865,0.000832,-0.002119,0.000404,   9.371
   330.2,0.000872,0.000830,-0.002024,0.000364,   9.357
   330.4,0.000875,0.000832,-0.001891,0.000364,   9.348
   330.6,0.000868,0.000838,-0.002059,0.000391,   9.340
   330.8,0.000875,0.000837,-0.002356,0.000391,   9.328
   331.0,0.000868,0.000842,-0.002791,0.000404,   9.316
   331.2,0.000868,0.000840,-0.002851,0.000417,   9.309
   331.4,0.000865,0.000837,-0.002811,0.000430,   9.304
   331.6,0.000861,0.000842,-0.002648,0.000443,   9.294
   331.8,0.000871,0.000840,-0.002650,0.000443,   9.284
   332.0,0.000871,0.000842,-0.002691,0.000443,   9.275
   332.2,0.000867,0.000842,-0.002758,0.000466,   9.261
   332.4,0.000871,0.000845,-0.002758,0.000479,   9.257
   332.6,0.000868,0.000846,-0.002771,0.000466,   9.244
   332.8,0.000864,0.000847,-0.002730,0.000466,   9.241
   333.0,0.000868,0.000849,-0.002726,0.000479,   9.235
   333.2,0.000868,0.000849,-0.002705,0.000443,   9.228
   333.4,0.000861,0.000853,-0.002665,0.000443,   9.218
   333.6,0.000868,0.000850,-0.002620,0.000457,   9.211
   333.8,0.000865,0.000849,-0.002669,0.000457,   9.195
   334.0,0.000863,0.000854,-0.002752,0.000443,   9.183
   334.2,0.000857,0.000856,-0.002895,0.000457,   9.178
   334.4,0.000852,0.000853,-0.002985,0.000457,   9.170
   334.6,0.000845,0.000850,-0.003044,0.000443,   9.162
   334.8,0.000845,0.000851,-0.003122,0.000457,   9.157
   335.0,0.000845,0.000844,-0.003188,0.000443,   9.142
   335.2,0.000841,0.000838,-0.003247,0.000430,   9.142
   335.4,0.000851,0.000826,-0.003294,0.000443,   9.132
   335.6,0.000851,0.000818,-0.003306,0.000430,   9.122
   335.8,0.000847,0.000810,-0.003301,0.000417,   9.112
   336.0,0.000854,0.000817,-0.003271,0.000430,   9.099
   336.2,0.000851,0.000820,-0.003290,0.000430,   9.091
   336.4,0.000847,0.000825,-0.003334,0.000417,   9.086
   336.6,0.000854,0.000830,-0.003381,0.000430,   9.076
   336.8,0.000854,0.000835,-0.003387,0.000443,   9.063
   337.0,0.000847,0.000838,-0.003408,0.000443,   9.056
   337.2,0.000854,0.000837,-0.003405,0.000457,   9.049
   337.4,0.000854,0.000836,-0.003719,0.000457,   9.042
   337.6,0.000854,0.000838,-0.004210,0.000443,   9.036
   337.8,0.000847,0.000841,-0.004853,0.000457,   9.025
   338.0,0.000850,0.000842,-0.004909,0.000457,   9.018
   338.2,0.000850,0.000841,-0.004739,0.000443,   9.019
   338.4,0.000850,0.000842,-0.004363,0.000457,   9.010
   338.6,0.000853,0.000846,-0.004217,0.000457,   8.997
   338.8,0.000853,0.000843,-0.004077,0.000457,   8.992
   339.0,0.000837,0.000850,-0.003961,0.000470,   8.981
   339.2,0.000823,0.000851,-0.003916,0.000470,   8.978
   339.4,0.000809,0.000845,-0.003923,0.000470,   8.967
   339.6,0.000799,0.000847,-0.003965,0.000483,   8.959
   339.8,0.000796,0.000844,-0.003984,0.000483,   8.950
   340.0,0.000809,0.000838,-0.004015,0.000470,   8.942
   340.2,0.000812,0.000832,-0.004025,0.000457,   8.937
   340.4,0.000815,0.000828,-0.003996,0.000430,   8.921
   340.6,0.000832,0.000826,-0.003937,0.000404,   8.923
   340.8,0.000835,0.000821,-0.003842,0.000391,   8.914
   341.0,0.000828,0.000824,-0.003849,0.000368,   8.904
   341.2,0.000835,0.000824,-0.003902,0.000404,   8.895
   341.4,0.000835,0.000821,-0.003992,0.000417,   8.889
   341.6,0.000828,0.000826,-0.004077,0.000430,   8.880
   341.8,0.000832,0.000829,-0.004173,0.000443,   8.874
   342.0,0.000838,0.000830,-0.004297,0.000443,   8.865
   342.2,0.000833,0.000833,-0.004346,0.000457,   8.858
   342.4,0.000840,0.000831,-0.004389,0.000457,   8.849
   342.6,0.000840,0.000833,-0.004372,0.000443,   8.845
   342.8,0.000833,0.000829,-0.004361,0.000457,   8.836
   343.0,0.000832,0.000826,-0.004439,0.000457,   8.826
   343.2,0.000825,0.000826,-0.004564,0.000457,   8.821
   343.4,0.000822,0.000826,-0.004705,0.000457,   8.817
   343.6,0.000822,0.000826,-0.004790,0.000457,   8.814
   343.8,0.000818,0.000826,-0.004832,0.000457,   8.805
   344.0,0.000822,0.000824,-0.004856,0.000457,   8.791
   344.2,0.000819,0.000824,-0.004916,0.000457,   8.789
   344.4,0.000809,0.000824,-0.004977,0.000457,   8.780
   344.6,0.000800,0.000824,-0.005042,0.000457,   8.773
   344.8,0.000786,0.000821,-0.005049,0.000457,   8.763
   345.0,0.000779,0.000819,-0.005051,0.000457,   8.754
   345.2,0.000776,0.000815,-0.005041,0.000457,   8.748
   345.4,0.000783,0.000815,-0.005089,0.000443,   8.742
   345.6,0.000779,0.000804,-0.005160,0.000417,   8.739
   345.8,0.000776,0.000786,-0.005255,0.000430,   8.727
   346.0,0.000783,0.000769,-0.005286,0.000417,   8.722
   346.2,0.000779,0.000765,-0.005286,0.000404,   8.714
   346.4,0.000779,0.000769,-0.005274,0.000417,   8.707
   346.6,0.000789,0.000776,-0.005610,0.000417,   8.700
   346.8,0.000789,0.000780,-0.006117,0.000417,   8.692
   347.0,0.000792,0.000787,-0.006785,0.000430,   8.684
   347.2,0.000796,0.000794,-0.006840,0.000430,   8.680
   347.4,0.000796,0.000800,-0.006679,0.000430,   8.670
   347.6,0.000799,0.000799,-0.006270,0.000443,   8.658
   347.8,0.000799,0.000801,-0.006179,0.000430,   8.650
   348.0,0.000799,0.000803,-0.006140,0.000430,   8.646
   348.2,0.000802,0.000805,-0.006134,0.000443,   8.644
   348.4,0.000808,0.000811,-0.006048,0.000443,   8.633
   348.6,0.000812,0.000811,-0.005950,0.000457,   8.632
   348.8,0.000815,0.000811,-0.005852,0.000457,   8.628
   349.0,0.000808,0.000812,-0.005818,0.000457,   8.616
   349.2,0.000808,0.000814,-0.005813,0.000457,   8.617
   349.4,0.000803,0.000815,-0.005859,0.000457,   8.610
   349.6,0.000791,0.000820,-0.005837,0.000457,   8.599
   349.8,0.000783,0.000822,-0.005797,0.000457,   8.592
   350.0,0.000783,0.000817,-0.005746,0.000457,   8.588
   350.2,0.000781,0.000815,-0.005775,0.000421,   8.581
   350.4,0.000783,0.000812,-0.005870,0.000470,   8.579
   350.6,0.000782,0.000806,-0.005980,0.000470,   8.564
   350.8,0.000785,0.000802,-0.005985,0.000457,   8.559
   351.0,0.000784,0.000800,-0.005968,0.000430,   8.556
   351.2,0.000787,0.000795,-0.005890,0.000391,   8.550
   351.4,0.000787,0.000798,-0.005802,0.000391,   8.542
   351.6,0.000788,0.000800,-0.005839,0.000391,   8.534
   351.8,0.000788,0.000800,-0.005904,0.000404,   8.525
   352.0,0.000784,0.000803,-0.005999,0.000417,   8.524
   352.2,0.000788,0.000805,-0.006054,0.000417,   8.517
   352.4,0.000788,0.000804,-0.006102,0.000430,   8.511
   352.6,0.000784,0.000800,-0.006139,0.000443,   8.502
   352.8,0.000788,0.000802,-0.006515,0.000443,   8.493
   353.0,0.000788,0.000805,-0.007067,0.000443,   8.484
   353.2,0.000784,0.000797,-0.007799,0.000457,   8.487
   353.4,0.000791,0.000792,-0.007893,0.000457,   8.478
   353.6,0.000791,0.000792,-0.007772,0.000443,   8.473
   353.8,0.000784,0.000784,-0.007434,0.000470,   8.465
   354.0,0.000791,0.000787,-0.007308,0.000470,   8.463
   354.2,0.000794,0.000786,-0.007181,0.000470,   8.460
   354.4,0.000787,0.000789,-0.007061,0.000483,   8.451
   354.6,0.000797,0.000793,-0.006963,0.000483,   8.447
   354.8,0.000791,0.000798,-0.006901,0.000470,   8.439
   355.0,0.000770,0.000795,-0.006855,0.000470,   8.431
   355.2,0.000759,0.000795,-0.006850,0.000470,   8.429
   355.4,0.000753,0.000797,-0.006874,0.000470,   8.417
   355.6,0.000753,0.000795,-0.006932,0.000457,   8.411
   355.8,0.000756,0.000790,-0.006910,0.000457,   8.399
   356.0,0.000762,0.000779,-0.006859,0.000457,   8.400
   356.2,0.000758,0.000759,-0.006778,0.000443,   8.393
   356.4,0.000768,0.000738,-0.006807,0.000430,   8.392
   356.6,0.000771,0.000733,-0.006883,0.000430,   8.385
   356.8,0.000774,0.000731,-0.006998,0.000443,   8.374
   357.0,0.000770,0.000743,-0.007022,0.000443,   8.372
   357.2,0.000779,0.000749,-0.007031,0.000443,   8.364
   357.4,0.000775,0.000756,-0.007003,0.000457,   8.359
   357.6,0.000773,0.000765,-0.007456,0.000457,   8.350
   357.8,0.000770,0.000774,-0.008111,0.000443,   8.347
   358.0,0.000766,0.000773,-0.008986,0.000457,   8.339
   358.2,0.000770,0.000778,-0.009075,0.000457,   8.333
   358.4,0.000770,0.000782,-0.008884,0.000443,   8.331
   358.6,0.000773,0.000777,-0.008412,0.000457,   8.325
   358.8,0.000770,0.000777,-0.008274,0.000457,   8.319
   359.0,0.000776,0.000777,-0.008182,0.000443,   8.314
   359.2,0.000779,0.000775,-0.008130,0.000443,   8.310
   359.4,0.000770,0.000778,-0.008067,0.000421,   8.306
   359.6,0.000776,0.000780,-0.008033,0.000443,   8.301
   359.8,0.000775,0.000775,-0.008016,0.000443,   8.293
   360.0,0.000765,0.000778,-0.007994,0.000457,   8.291
   360.2,0.000760,0.000778,-0.007965,0.000457,   8.283
   360.4,0.000750,0.000778,-0.007959,0.000443,   8.278
   360.6,0.000750,0.000776,-0.007966,0.000457,   8.275
   360.8,0.000745,0.000776,-0.008009,0.000457,   8.268
   361.0,0.000747,0.000769,-0.008051,0.000457,   8.263
   361.2,0.000746,0.000764,-0.008097,0.000443,   8.255
   361.4,0.000754,0.000760,-0.008038,0.000417,   8.252
   361.6,0.000763,0.000758,-0.007932,0.000377,   8.248
   361.8,0.000762,0.000756,-0.007761,0.000391,   8.237
   362.0,0.000762,0.000756,-0.008100,0.000391,   8.230
   362.2,0.000761,0.000755,-0.008666,0.000404,   8.226
   362.4,0.000764,0.000755,-0.009477,0.000417,   8.228
   362.6,0.000764,0.000757,-0.009566,0.000430,   8.217
   362.8,0.000760,0.000761,-0.009404,0.000443,   8.212
   363.0,0.000770,0.000767,-0.009022,0.000457,   8.206
   363.2,0.000775,0.000771,-0.008884,0.000457,   8.202
   363.4,0.000774,0.000771,-0.008757,0.000457,   8.195
   363.6,0.000784,0.000778,-0.008641,0.000457,   8.185
   363.8,0.000790,0.000771,-0.008566,0.000457,   8.187
   364.0,0.000789,0.000766,-0.008544,0.000457,   8.178
   364.2,0.000796,0.000776,-0.008556,0.000470,   8.179
   364.4,0.000793,0.000776,-0.008534,0.000470,   8.177
   364.6,0.000793,0.000775,-0.008517,0.000470,   8.168
   364.8,0.000786,0.000784,-0.008507,0.000483,   8.161
   365.0,0.000793,0.000786,-0.008479,0.000483,   8.152
   365.2,0.000790,0.000780,-0.008457,0.000470,   8.149
   365.4,0.000781,0.000788,-0.008423,0.000470,   8.147
   365.6,0.000770,0.000787,-0.008389,0.000483,   8.144
   365.8,0.000752,0.000782,-0.008367,0.000483,   8.133
   366.0,0.000749,0.000788,-0.008338,0.000483,   8.125
   366.2,0.000752,0.000794,-0.008350,0.000483,   8.124
   366.4,0.000765,0.000785,-0.008391,0.000470,   8.120
   366.6,0.000771,0.000764,-0.008454,0.000457,   8.116
   366.8,0.000770,0.000744,-0.008478,0.000443,   8.110
   367.0,0.000785,0.000742,-0.008495,0.000430,   8.102
   367.2,0.000788,0.000741,-0.008493,0.000430,   8.100
   367.4,0.000784,0.000750,-0.008459,0.000430,   8.089
   367.6,0.000791,0.000757,-0.008415,0.000443,   8.091
   367.8,0.000791,0.000766,-0.008335,0.000443,   8.087
   368.0,0.000787,0.000777,-0.008516,0.000421,   8.079
   368.2,0.000794,0.000784,-0.008844,0.000470,   8.075
   368.4,0.000797,0.000785,-0.009287,0.000470,   8.067
   368.6,0.000796,0.000788,-0.009397,0.000483,   8.062
   368.8,0.000806,0.000793,-0.009404,0.000483,   8.058
   369.0,0.000811,0.000797,-0.009299,0.000483,   8.052
   369.2,0.000807,0.000797,-0.009101,0.000483,   8.052
   369.4,0.000814,0.000803,-0.009049,0.000496,   8.048
   369.6,0.000817,0.000810,-0.009003,0.000483,   8.045
   369.8,0.000813,0.000814,-0.008945,0.000483,   8.035
   370.0,0.000817,0.000816,-0.008947,0.000496,   8.035
   370.2,0.000802,0.000815,-0.008971,0.000483,   8.029
   370.4,0.000787,0.000816,-0.009005,0.000483,   8.025
   370.6,0.000770,0.000811,-0.009024,0.000496,   8.021
   370.8,0.000757,0.000811,-0.009048,0.000496,   8.016
   371.0,0.000751,0.000807,-0.009053,0.000496,   8.007
   371.2,0.000751,0.000812,-0.009060,0.000496,   8.005
   371.4,0.000747,0.000808,-0.009072,0.000496,   8.003
   371.6,0.000757,0.000801,-0.009077,0.000483,   8.001
   371.8,0.000770,0.000800,-0.009048,0.000457,   7.990
   372.0,0.000766,0.000795,-0.008983,0.000417,   7.985
   372.2,0.000773,0.000787,-0.008906,0.000417,   7.980
   372.4,0.000775,0.000780,-0.008872,0.000430,   7.978
   372.6,0.000769,0.000780,-0.008867,0.000443,   7.976
   372.8,0.000769,0.000781,-0.008869,0.000457,   7.972
   373.0,0.000769,0.000784,-0.008900,0.000457,   7.961
   373.2,0.000771,0.000784,-0.008960,0.000457,   7.960
   373.4,0.000774,0.000779,-0.009042,0.000470,   7.955
   373.6,0.000777,0.000784,-0.009102,0.000470,   7.952
   373.8,0.000780,0.000786,-0.009174,0.000470,   7.948
   374.0,0.000783,0.000783,-0.009232,0.000483,   7.940
   374.2,0.000786,0.000790,-0.009309,0.000483,   7.940
   374.4,0.000786,0.000790,-0.009391,0.000505,   7.933
   374.6,0.000782,0.000787,-0.009489,0.000505,   7.929
   374.8,0.000789,0.000791,-0.009508,0.000483,   7.931
   375.0,0.000796,0.000793,-0.009486,0.000532,   7.926
   375.2,0.000792,0.000793,-0.009459,0.000532,   7.921
   375.4,0.000796,0.000797,-0.009500,0.000509,   7.923
   375.6,0.000796,0.000799,-0.009589,0.000509,   7.912
   375.8,0.000783,0.000801,-0.009698,0.000523,   7.908
   376.0,0.000773,0.000801,-0.009693,0.000487,   7.901
   376.2,0.000752,0.000801,-0.009647,0.000523,   7.897
   376.4,0.000746,0.000805,-0.009572,0.000523,   7.896
   376.6,0.000746,0.000802,-0.009596,0.000536,   7.890
   376.8,0.000756,0.000788,-0.009666,0.000523,   7.887
   377.0,0.000756,0.000768,-0.009753,0.000496,   7.881
   377.2,0.000755,0.000744,-0.009748,0.000496,   7.881
   377.4,0.000768,0.000737,-0.009719,0.000483,   7.873
   377.6,0.000774,0.000738,-0.009656,0.000470,   7.869
   377.8,0.000767,0.000753,-0.009562,0.000470,   7.865
   378.0,0.000771,0.000755,-0.009574,0.000470,   7.859
   378.2,0.000774,0.000755,-0.009615,0.000470,   7.857
   378.4,0.000767,0.000766,-0.009699,0.000470,   7.858
   378.6,0.000776,0.000771,-0.009728,0.000483,   7.851
   378.8,0.000779,0.000773,-0.009787,0.000483,   7.842
   379.0,0.000773,0.000782,-0.009852,0.000483,   7.840
   379.2,0.000782,0.000784,-0.009881,0.000496,   7.837
   379.4,0.000782,0.000779,-0.009917,0.000496,   7.833
   379.6,0.000773,0.000780,-0.009960,0.000496,   7.832
   379.8,0.000776,0.000775,-0.009991,0.000496,   7.826
   380.0,0.000779,0.000773,-0.009998,0.000496,   7.823
   380.2,0.000770,0.000778,-0.009986,0.000496,   7.826
   380.4,0.000774,0.000780,-0.010000,0.000496,   7.819
   380.6,0.000761,0.000783,-0.010002,0.000496,   7.818
   380.8,0.000746,0.000784,-0.009978,0.000496,   7.810
   381.0,0.000726,0.000782,-0.009985,0.000496,   7.807
   381.2,0.000710,0.000778,-0.009997,0.000496,   7.804
   381.4,0.000705,0.000781,-0.010032,0.000496,   7.796
   381.6,0.000699,0.000776,-0.010109,0.000496,   7.793
   381.8,0.000703,0.000771,-0.010225,0.000496,   7.787
   382.0,0.000703,0.000764,-0.010376,0.000483,   7.780
   382.2,0.000713,0.000754,-0.010417,0.000443,   7.784
   382.4,0.000718,0.000745,-0.010403,0.000404,   7.781
   382.6,0.000724,0.000743,-0.010373,0.000404,   7.778
   382.8,0.000720,0.000736,-0.010379,0.000404,   7.779
   383.0,0.000733,0.000734,-0.010405,0.000417,   7.772
   383.2,0.000736,0.000736,-0.010419,0.000430,   7.767
   383.4,0.000732,0.000741,-0.010416,0.000443,   7.760
   383.6,0.000739,0.000748,-0.010411,0.000457,   7.758
   383.8,0.000739,0.000748,-0.010401,0.000457,   7.753
   384.0,0.000735,0.000748,-0.010444,0.000457,   7.746
   384.2,0.000742,0.000743,-0.010509,0.000457,   7.745
   384.4,0.000742,0.000747,-0.010595,0.000457,   7.741
   384.6,0.000738,0.000754,-0.010660,0.000421,   7.737
   384.8,0.000742,0.000754,-0.010737,0.000470,   7.731
   385.0,0.000742,0.000752,-0.010806,0.000470,   7.729
   385.2,0.000735,0.000752,-0.010837,0.000470,   7.730
   385.4,0.000736,0.000757,-0.010837,0.000483,   7.723
   385.6,0.000736,0.000759,-0.010822,0.000470,   7.726
   385.8,0.000729,0.000757,-0.010781,0.000470,   7.717
   386.0,0.000733,0.000757,-0.010793,0.000470,   7.713
   386.2,0.000717,0.000757,-0.010836,0.000470,   7.710
   386.4,0.000703,0.000753,-0.010896,0.000470,   7.707
   386.6,0.000685,0.000744,-0.010936,0.000470,   7.703
   386.8,0.000676,0.000750,-0.011001,0.000470,   7.698
   387.0,0.000683,0.000752,-0.011083,0.000470,   7.695
   387.2,0.000688,0.000739,-0.011100,0.000470,   7.691
   387.4,0.000694,0.000720,-0.011105,0.000470,   7.688
   387.6,0.000700,0.000694,-0.011110,0.000457,   7.685
   387.8,0.000710,0.000687,-0.011318,0.000443,   7.683
   388.0,0.000716,0.000682,-0.011630,0.000430,   7.679
   388.2,0.000714,0.000684,-0.012038,0.000430,   7.677
   388.4,0.000721,0.000693,-0.012057,0.000430,   7.671
   388.6,0.000717,0.000702,-0.011939,0.000443,   7.670
   388.8,0.000717,0.000705,-0.011658,0.000457,   7.663
   389.0,0.000717,0.000715,-0.011723,0.000457,   7.663
   389.2,0.000713,0.000717,-0.011897,0.000457,   7.658
   389.4,0.000720,0.000723,-0.012175,0.000457,   7.655
   389.6,0.000723,0.000727,-0.012148,0.000457,   7.652
   389.8,0.000716,0.000727,-0.012009,0.000457,   7.650
   390.0,0.000723,0.000726,-0.011791,0.000457,   7.642
   390.2,0.000723,0.000731,-0.012104,0.000457,   7.637
   390.4,0.000723,0.000738,-0.012636,0.000457,   7.638
   390.6,0.000722,0.000738,-0.013402,0.000470,   7.637
   390.8,0.000729,0.000737,-0.013414,0.000470,   7.631
   391.0,0.000732,0.000744,-0.013161,0.000470,   7.626
   391.2,0.000726,0.000748,-0.012654,0.000483,   7.622
   391.4,0.000720,0.000746,-0.012470,0.000496,   7.621
   391.6,0.000712,0.000748,-0.012327,0.000483,   7.619
   391.8,0.000699,0.000753,-0.012218,0.000483,   7.611
   392.0,0.000700,0.000756,-0.012077,0.000496,   7.606
   392.2,0.000694,0.000750,-0.011950,0.000483,   7.608
   392.4,0.000693,0.000754,-0.011818,0.000470,   7.606
   392.6,0.000699,0.000752,-0.011957,0.000443,   7.601
   392.8,0.000708,0.000743,-0.012232,0.000404,   7.599
   393.0,0.000712,0.000740,-0.012651,0.000404,   7.591
   393.2,0.000721,0.000733,-0.012640,0.000404,   7.589
   393.4,0.000737,0.000730,-0.012513,0.000430,   7.587
   393.6,0.000735,0.000736,-0.012242,0.000443,   7.580
   393.8,0.000735,0.000743,-0.012185,0.000443,   7.580
   394.0,0.000739,0.000749,-0.012178,0.000457,   7.570
   394.2,0.000735,0.000746,-0.012230,0.000457,   7.575
   394.4,0.000742,0.000753,-0.012197,0.000434,   7.573
   394.6,0.000749,0.000758,-0.012139,0.000470,   7.567
   394.8,0.000748,0.000755,-0.012082,0.000483,   7.561
   395.0,0.000758,0.000760,-0.012060,0.000496,   7.555
   395.2,0.000764,0.000764,-0.012024,0.000483,   7.556
   395.4,0.000763,0.000759,-0.012038,0.000483,   7.556
   395.6,0.000770,0.000759,-0.012031,0.000483,   7.553
   395.8,0.000770,0.000759,-0.011975,0.000496,   7.552
   396.0,0.000770,0.000759,-0.011901,0.000483,   7.547
   396.2,0.000767,0.000762,-0.011817,0.000483,   7.544
   396.4,0.000768,0.000766,-0.011829,0.000496,   7.540
   396.6,0.000756,0.000768,-0.011898,0.000483,   7.540
   396.8,0.000735,0.000779,-0.012006,0.000483,   7.532
   397.0,0.000716,0.000781,-0.011989,0.000496,   7.529
   397.2,0.000710,0.000779,-0.011944,0.000496,   7.530
   397.4,0.000710,0.000779,-0.011888,0.000496,   7.525
   397.6,0.000717,0.000769,-0.011854,0.000496,   7.522
   397.8,0.000720,0.000754,-0.011826,0.000496,   7.518
   398.0,0.000721,0.000739,-0.011821,0.000483,   7.516
   398.2,0.000730,0.000713,-0.011953,0.000470,   7.511
   398.4,0.000729,0.000706,-0.012159,0.000457,   7.510
   398.6,0.000735,0.000709,-0.012446,0.000457,   7.509
   398.8,0.000743,0.000723,-0.012614,0.000457,   7.505
   399.0,0.000742,0.000730,-0.012764,0.000470,   7.505
   399.2,0.000746,0.000735,-0.012881,0.000483,   7.498
   399.4,0.000743,0.000745,-0.012842,0.000496,   7.492
   399.6,0.000746,0.000754,-0.012711,0.000483,   7.495
   399.8,0.000746,0.000758,-0.012474,0.000483,   7.487
   400.0,0.000756,0.000757,-0.012417,0.000496,   7.484
   400.2,0.000756,0.000758,-0.012435,0.000483,   7.483
   400.4,0.000749,0.000763,-0.012474,0.000483,   7.481
   400.6,0.000759,0.000763,-0.012608,0.000496,   7.478
   400.8,0.000752,0.000760,-0.012835,0.000483,   7.479
   401.0,0.000745,0.000758,-0.013123,0.000483,   7.477
   401.2,0.000752,0.000760,-0.013073,0.000496,   7.470
   401.4,0.000756,0.000765,-0.012896,0.000518,   7.475
   401.6,0.000741,0.000764,-0.012592,0.000518,   7.467
   401.8,0.000732,0.000766,-0.012535,0.000496,   7.462
   402.0,0.000723,0.000766,-0.012551,0.000532,   7.459
   402.2,0.000712,0.000764,-0.012626,0.000532,   7.460
   402.4,0.000708,0.000763,-0.012575,0.000496,   7.452
   402.6,0.000701,0.000763,-0.012501,0.000532,   7.448
   402.8,0.000701,0.000753,-0.012410,0.000518,   7.446
   403.0,0.000700,0.000752,-0.012335,0.000457,   7.445
   403.2,0.000702,0.000743,-0.012254,0.000452,   7.445
   403.4,0.000711,0.000730,-0.012183,0.000439,   7.441
   403.6,0.000713,0.000720,-0.012178,0.000439,   7.438
   403.8,0.000721,0.000718,-0.012208,0.000452,   7.435
   404.0,0.000727,0.000715,-0.012266,0.000452,   7.428
   404.2,0.000723,0.000721,-0.012307,0.000466,   7.424
   404.4,0.000730,0.000729,-0.012364,0.000479,   7.427
   404.6,0.000733,0.000733,-0.012440,0.000443,   7.422
   404.8,0.000729,0.000739,-0.012538,0.000457,   7.414
   405.0,0.000739,0.000741,-0.012545,0.000457,   7.412
   405.2,0.000742,0.000747,-0.012540,0.000479,   7.413
   405.4,0.000735,0.000747,-0.012495,0.000492,   7.411
   405.6,0.000739,0.000752,-0.012473,0.000457,   7.407
   405.8,0.000732,0.000754,-0.012468,0.000492,   7.406
   406.0,0.000735,0.000757,-0.012463,0.000505,   7.402
   406.2,0.000735,0.000764,-0.012521,0.000470,   7.404
   406.4,0.000728,0.000764,-0.012631,0.000470,   7.402
   406.6,0.000735,0.000754,-0.012774,0.000483,   7.397
   406.8,0.000732,0.000752,-0.012781,0.000496,   7.397
   407.0,0.000717,0.000750,-0.012754,0.000483,   7.391
   407.2,0.000701,0.000750,-0.012656,0.000483,   7.387
   407.4,0.000676,0.000756,-0.012663,0.000496,   7.382
   407.6,0.000670,0.000756,-0.012687,0.000483,   7.381
   407.8,0.000666,0.000756,-0.012745,0.000483,   7.379
   408.0,0.000678,0.000753,-0.012756,0.000496,   7.376
   408.2,0.000684,0.000734,-0.012746,0.000483,   7.376
   408.4,0.000685,0.000716,-0.012742,0.000470,   7.373
   408.6,0.000704,0.000691,-0.012725,0.000457,   7.370
   408.8,0.000710,0.000684,-0.012677,0.000430,   7.368
   409.0,0.000713,0.000678,-0.012642,0.000430,   7.362
   409.2,0.000718,0.000690,-0.012665,0.000430,   7.361
   409.4,0.000718,0.000696,-0.012718,0.000457,   7.360
   409.6,0.000714,0.000694,-0.012811,0.000457,   7.357
   409.8,0.000721,0.000703,-0.012846,0.000457,   7.352
   410.0,0.000718,0.000708,-0.012889,0.000457,   7.345
   410.2,0.000724,0.000710,-0.012906,0.000470,   7.347
   410.4,0.000720,0.000715,-0.012918,0.000470,   7.347
   410.6,0.000733,0.000719,-0.012960,0.000470,   7.342
   410.8,0.000729,0.000724,-0.012977,0.000483,   7.338
   411.0,0.000732,0.000731,-0.013018,0.000496,   7.336
   411.2,0.000732,0.000738,-0.013070,0.000483,   7.335
   411.4,0.000725,0.000734,-0.013139,0.000483,   7.334
   411.6,0.000732,0.000739,-0.013163,0.000496,   7.334
   411.8,0.000732,0.000743,-0.013151,0.000496,   7.331
   412.0,0.000722,0.000745,-0.013141,0.000496,   7.323
   412.2,0.000723,0.000753,-0.013320,0.000474,   7.325
   412.4,0.000717,0.000755,-0.013590,0.000474,   7.325
   412.6,0.000705,0.000750,-0.013957,0.000474,   7.319
   412.8,0.000703,0.000753,-0.014188,0.000438,   7.315
   413.0,0.000697,0.000754,-0.014378,0.000474,   7.311
   413.2,0.000687,0.000752,-0.014557,0.000474,   7.312
   413.4,0.000694,0.000751,-0.014540,0.000474,   7.309
   413.6,0.000694,0.000742,-0.014402,0.000434,   7.311
   413.8,0.000693,0.000737,-0.014161,0.000395,   7.306
   414.0,0.000706,0.000723,-0.013797,0.000395,   7.302
   414.2,0.000709,0.000718,-0.013700,0.000359,   7.298
   414.4,0.000714,0.000713,-0.013654,0.000408,   7.295
   414.6,0.000717,0.000718,-0.013642,0.000421,   7.294
   414.8,0.000721,0.000726,-0.013547,0.000385,   7.295
   415.0,0.000724,0.000728,-0.013451,0.000421,   7.290
   415.2,0.000717,0.000730,-0.013326,0.000421,   7.286
   415.4,0.000724,0.000735,-0.013293,0.000385,   7.287
   415.6,0.000727,0.000732,-0.013312,0.000421,   7.286
   415.8,0.000731,0.000737,-0.013369,0.000434,   7.280
   416.0,0.000742,0.000740,-0.013419,0.000399,   7.279
   416.2,0.000748,0.000741,-0.013517,0.000434,   7.275
   416.4,0.000744,0.000746,-0.013649,0.000447,   7.276
   416.6,0.000740,0.000747,-0.013682,0.000425,   7.275
   416.8,0.000740,0.000749,-0.013706,0.000447,   7.273
   417.0,0.000740,0.000749,-0.013708,0.000447,   7.270
   417.2,0.000737,0.000754,-0.013681,0.000425,   7.270
   417.4,0.000725,0.000758,-0.013619,0.000461,   7.265
   417.6,0.000714,0.000764,-0.013528,0.000461,   7.265
   417.8,0.000686,0.000760,-0.013569,0.000425,   7.260
   418.0,0.000670,0.000755,-0.013678,0.000461,   7.260
   418.2,0.000660,0.000754,-0.013838,0.000461,   7.255
   418.4,0.000667,0.000753,-0.013781,0.000425,   7.255
   418.6,0.000683,0.000739,-0.013650,0.000447,   7.254
   418.8,0.000692,0.000719,-0.013456,0.000434,   7.248
   419.0,0.000693,0.000695,-0.013382,0.000385,   7.246
   419.2,0.000712,0.000688,-0.013353,0.000395,   7.242
   419.4,0.000721,0.000689,-0.013346,0.000395,   7.244
   419.6,0.000717,0.000694,-0.013807,0.000359,   7.239
   419.8,0.000724,0.000698,-0.014519,0.000408,   7.244
   420.0,0.000726,0.000702,-0.015499,0.000421,   7.238
   420.2,0.000722,0.000711,-0.015558,0.000385,   7.238
   420.4,0.000724,0.000715,-0.015278,0.000421,   7.235
   420.6,0.000726,0.000713,-0.014684,0.000434,   7.235
   420.8,0.000722,0.000718,-0.014496,0.000399,   7.229
   421.0,0.000732,0.000725,-0.014341,0.000434,   7.226
   421.2,0.000735,0.000723,-0.014256,0.000434,   7.227
   421.4,0.000728,0.000726,-0.014177,0.000412,   7.224
   421.6,0.000735,0.000735,-0.014127,0.000447,   7.223
   421.8,0.000738,0.000737,-0.014103,0.000447,   7.221
   422.0,0.000738,0.000734,-0.014098,0.000461,   7.221
   422.2,0.000742,0.000734,-0.014122,0.000483,   7.222
   422.4,0.000739,0.000735,-0.014148,0.000483,   7.218
   422.6,0.000733,0.000737,-0.014222,0.000483,   7.216
   422.8,0.000725,0.000735,-0.014224,0.000496,   7.209
   423.0,0.000716,0.000738,-0.014184,0.000483,   7.213
   423.2,0.000704,0.000741,-0.014127,0.000483,   7.210
   423.4,0.000693,0.000743,-0.014138,0.000496,   7.209
   423.6,0.000696,0.000743,-0.014191,0.000483,   7.205
   423.8,0.000696,0.000742,-0.014270,0.000470,   7.204
   424.0,0.000701,0.000735,-0.014286,0.000457,   7.201
   424.2,0.000707,0.000723,-0.014279,0.000417,   7.196
   424.4,0.000706,0.000719,-0.014265,0.000417,   7.201
   424.6,0.000712,0.000711,-0.014261,0.000417,   7.196
   424.8,0.000718,0.000704,-0.014251,0.000417,   7.196
   425.0,0.000711,0.000706,-0.014217,0.000430,   7.194
   425.2,0.000714,0.000707,-0.014184,0.000443,   7.191
   425.4,0.000717,0.000707,-0.014169,0.000457,   7.187
   425.6,0.000722,0.000713,-0.014142,0.000470,   7.185
   425.8,0.000722,0.000715,-0.014151,0.000470,   7.183
   426.0,0.000725,0.000712,-0.014151,0.000470,   7.180
   426.2,0.000728,0.000716,-0.014168,0.000483,   7.177
   426.4,0.000728,0.000723,-0.014180,0.000483,   7.176
   426.6,0.000728,0.000727,-0.014220,0.000470,   7.176
   426.8,0.000731,0.000719,-0.014266,0.000470,   7.174
   427.0,0.000724,0.000723,-0.014266,0.000470,   7.171
   427.2,0.000734,0.000723,-0.014278,0.000470,   7.173
   427.4,0.000730,0.000724,-0.014280,0.000470,   7.172
   427.6,0.000734,0.000727,-0.014258,0.000483,   7.167
   427.8,0.000741,0.000729,-0.014229,0.000483,   7.166
   428.0,0.000729,0.000734,-0.014196,0.000483,   7.160
   428.2,0.000699,0.000740,-0.014186,0.000496,   7.162
   428.4,0.000671,0.000743,-0.014191,0.000496,   7.160
   428.6,0.000665,0.000743,-0.014220,0.000496,   7.160
   428.8,0.000661,0.000736,-0.014220,0.000496,   7.151
   429.0,0.000674,0.000730,-0.014231,0.000496,   7.149
   429.2,0.000680,0.000712,-0.014260,0.000483,   7.154
   429.4,0.000685,0.000688,-0.014248,0.000457,   7.152
   429.6,0.000696,0.000691,-0.014224,0.000430,   7.149
   429.8,0.000702,0.000691,-0.014187,0.000430,   7.150
   430.0,0.000708,0.000694,-0.014232,0.000395,   7.147
   430.2,0.000711,0.000696,-0.014325,0.000443,   7.144
   430.4,0.000714,0.000705,-0.014439,0.000457,   7.140
   430.6,0.000714,0.000712,-0.014475,0.000457,   7.143
   430.8,0.000721,0.000714,-0.014482,0.000470,   7.135
   431.0,0.000724,0.000716,-0.014465,0.000470,   7.135
   431.2,0.000720,0.000722,-0.014420,0.000483,   7.135
   431.4,0.000726,0.000724,-0.014472,0.000496,   7.138
   431.6,0.000729,0.000728,-0.014553,0.000483,   7.135
   431.8,0.000722,0.000733,-0.014655,0.000483,   7.133
   432.0,0.000732,0.000730,-0.014679,0.000496,   7.128
   432.2,0.000735,0.000733,-0.014679,0.000483,   7.126
   432.4,0.000725,0.000743,-0.014650,0.000483,   7.132
   432.6,0.000732,0.000742,-0.014707,0.000496,   7.131
   432.8,0.000729,0.000740,-0.014828,0.000483,   7.126
   433.0,0.000714,0.000739,-0.014964,0.000483,   7.121
   433.2,0.000709,0.000736,-0.014993,0.000496,   7.120
   433.4,0.000703,0.000735,-0.014981,0.000496,   7.122
   433.6,0.000685,0.000735,-0.014959,0.000496,   7.119
   433.8,0.000680,0.000738,-0.014950,0.000509,   7.115
   434.0,0.000680,0.000738,-0.014909,0.000509,   7.114
   434.2,0.000673,0.000738,-0.014876,0.000496,   7.114
   434.4,0.000683,0.000739,-0.014883,0.000470,   7.114
   434.6,0.000689,0.000734,-0.014881,0.000430,   7.114
   434.8,0.000691,0.000723,-0.014883,0.000430,   7.108
   435.0,0.000703,0.000701,-0.015228,0.000417,   7.106
   435.2,0.000706,0.000694,-0.015749,0.000430,   7.107
   435.4,0.000705,0.000696,-0.016424,0.000443,   7.104
   435.6,0.000705,0.000701,-0.016407,0.000443,   7.103
   435.8,0.000705,0.000701,-0.016170,0.000457,   7.101
   436.0,0.000701,0.000704,-0.015670,0.000457,   7.098
   436.2,0.000701,0.000707,-0.015637,0.000457,   7.101
   436.4,0.000714,0.000709,-0.015717,0.000457,   7.095
   436.6,0.000720,0.000710,-0.015900,0.000470,   7.096
   436.8,0.000722,0.000717,-0.015821,0.000470,   7.095
   437.0,0.000725,0.000719,-0.015655,0.000470,   7.089
   437.2,0.000728,0.000719,-0.015404,0.000483,   7.089
   437.4,0.000728,0.000719,-0.015245,0.000496,   7.089
   437.6,0.000731,0.000724,-0.015133,0.000483,   7.092
   437.8,0.000734,0.000725,-0.015014,0.000483,   7.091
   438.0,0.000734,0.000732,-0.014981,0.000496,   7.088
   438.2,0.000734,0.000735,-0.015004,0.000496,   7.084
   438.4,0.000720,0.000735,-0.015071,0.000496,   7.084
   438.6,0.000693,0.000737,-0.015225,0.000496,   7.082
   438.8,0.000656,0.000739,-0.015467,0.000496,   7.078
   439.0,0.000653,0.000740,-0.015764,0.000496,   7.074
   439.2,0.000656,0.000740,-0.015764,0.000461,   7.075
   439.4,0.000664,0.000728,-0.015667,0.000509,   7.074
   439.6,0.000670,0.000705,-0.015448,0.000496,   7.072
   439.8,0.000676,0.000690,-0.015351,0.000496,   7.069
   440.0,0.000676,0.000688,-0.015237,0.000470,   7.066
   440.2,0.000682,0.000684,-0.015133,0.000430,   7.070
   440.4,0.000691,0.000686,-0.015036,0.000430,   7.066
   440.6,0.000696,0.000693,-0.015002,0.000430,   7.066
   440.8,0.000702,0.000695,-0.014997,0.000443,   7.065
   441.0,0.000705,0.000694,-0.015021,0.000457,   7.063
   441.2,0.000702,0.000696,-0.015028,0.000457,   7.061
   441.4,0.000708,0.000700,-0.015051,0.000457,   7.060
   441.6,0.000711,0.000707,-0.015075,0.000470,   7.063
   441.8,0.000714,0.000704,-0.015111,0.000470,   7.058
   442.0,0.000717,0.000705,-0.015151,0.000470,   7.056
   442.2,0.000720,0.000707,-0.015208,0.000483,   7.055
   442.4,0.000726,0.000709,-0.015203,0.000483,   7.054
   442.6,0.000726,0.000711,-0.015175,0.000470,   7.054
   442.8,0.000722,0.000717,-0.015118,0.000470,   7.052
   443.0,0.000729,0.000718,-0.015084,0.000483,   7.053
   443.2,0.000726,0.000717,-0.015067,0.000483,   7.054
   443.4,0.000717,0.000722,-0.015046,0.000483,   7.049
   443.6,0.000718,0.000725,-0.015041,0.000496,   7.048
   443.8,0.000709,0.000729,-0.015065,0.000483,   7.044
   444.0,0.000691,0.000727,-0.015098,0.000483,   7.044
   444.2,0.000683,0.000727,-0.015081,0.000496,   7.041
   444.4,0.000680,0.000730,-0.015048,0.000483,   7.041
   444.6,0.000670,0.000726,-0.015014,0.000470,   7.039
   444.8,0.000676,0.000727,-0.015226,0.000457,   7.039
   445.0,0.000682,0.000716,-0.015561,0.000430,   7.034
   445.2,0.000681,0.000702,-0.016009,0.000430,   7.036
   445.4,0.000684,0.000689,-0.016045,0.000417,   7.030
   445.6,0.000696,0.000682,-0.015919,0.000417,   7.028
   445.8,0.000702,0.000679,-0.015639,0.000430,   7.029
   446.0,0.000705,0.000686,-0.015521,0.000443,   7.025
   446.2,0.000702,0.000688,-0.015414,0.000443,   7.028
   446.4,0.000708,0.000693,-0.015307,0.000457,   7.026
   446.6,0.000711,0.000695,-0.015439,0.000457,   7.025
   446.8,0.000714,0.000699,-0.015679,0.000457,   7.023
   447.0,0.000717,0.000701,-0.016056,0.000457,   7.019
   447.2,0.000720,0.000704,-0.016084,0.000457,   7.019
   447.4,0.000720,0.000708,-0.016015,0.000457,   7.020
   447.6,0.000722,0.000710,-0.015855,0.000457,   7.015
   447.8,0.000725,0.000718,-0.015764,0.000434,   7.017
   448.0,0.000728,0.000722,-0.015662,0.000470,   7.017
   448.2,0.000731,0.000717,-0.015567,0.000483,   7.016
   448.4,0.000731,0.000719,-0.015500,0.000496,   7.013
   448.6,0.000735,0.000727,-0.015439,0.000483,   7.012
   448.8,0.000721,0.000732,-0.015410,0.000483,   7.012
   449.0,0.000685,0.000734,-0.015502,0.000483,   7.010
   449.2,0.000654,0.000737,-0.015664,0.000496,   7.008
   449.4,0.000648,0.000738,-0.015891,0.000496,   7.007
   449.6,0.000644,0.000739,-0.016187,0.000496,   7.007
   449.8,0.000663,0.000725,-0.016159,0.000496,   7.002
   450.0,0.000674,0.000711,-0.016050,0.000496,   7.004
   450.2,0.000676,0.000701,-0.015844,0.000483,   7.002
   450.4,0.000695,0.000691,-0.015764,0.000457,   7.003
   450.6,0.000703,0.000691,-0.015681,0.000430,   7.000
   450.8,0.000702,0.000691,-0.015627,0.000430,   7.003
   451.0,0.000712,0.000696,-0.015565,0.000430,   7.000
   451.2,0.000715,0.000695,-0.015515,0.000457,   6.997
   451.4,0.000708,0.000702,-0.015453,0.000470,   6.992
   451.6,0.000718,0.000711,-0.015432,0.000470,   6.992
   451.8,0.000721,0.000716,-0.015427,0.000470,   6.991
   452.0,0.000724,0.000721,-0.015427,0.000483,   6.992
   452.2,0.000733,0.000725,-0.015462,0.000496,   6.989
   452.4,0.000739,0.000722,-0.015507,0.000483,   6.991
   452.6,0.000739,0.000724,-0.015588,0.000483,   6.981
   452.8,0.000739,0.000725,-0.015566,0.000496,   6.981
   453.0,0.000739,0.000725,-0.015505,0.000496,   6.986
   453.2,0.000738,0.000733,-0.015419,0.000496,   6.983
   453.4,0.000738,0.000742,-0.015357,0.000509,   6.986
   453.6,0.000738,0.000743,-0.015302,0.000509,   6.990
   453.8,0.000731,0.000740,-0.015222,0.000509,   6.985
   454.0,0.000735,0.000739,-0.015210,0.000523,   6.979
   454.2,0.000726,0.000740,-0.015250,0.000509,   6.979
   454.4,0.000718,0.000742,-0.015300,0.000509,   6.978
   454.6,0.000699,0.000745,-0.015305,0.000523,   6.977
   454.8,0.000692,0.000740,-0.015329,0.000509,   6.977
   455.0,0.000686,0.000747,-0.015340,0.000496,   6.973
   455.2,0.000686,0.000746,-0.015352,0.000483,   6.971
   455.4,0.000699,0.000734,-0.015374,0.000457,   6.971
   455.6,0.000701,0.000723,-0.015382,0.000443,   6.971
   455.8,0.000704,0.000705,-0.015377,0.000443,   6.968
   456.0,0.000704,0.000698,-0.015355,0.000457,   6.970
   456.2,0.000710,0.000699,-0.015315,0.000457,   6.971
   456.4,0.000713,0.000702,-0.015305,0.000421,   6.961
   456.6,0.000713,0.000701,-0.015300,0.000457,   6.971
   456.8,0.000716,0.000702,-0.015307,0.000457,   6.963
   457.0,0.000716,0.000708,-0.015364,0.000457,   6.963
   457.2,0.000716,0.000710,-0.015485,0.000470,   6.965
   457.4,0.000719,0.000711,-0.015627,0.000470,   6.960
   457.6,0.000715,0.000714,-0.015758,0.000483,   6.956
   457.8,0.000718,0.000711,-0.015924,0.000483,   6.959
   458.0,0.000721,0.000708,-0.016101,0.000470,   6.954
   458.2,0.000720,0.000711,-0.016300,0.000470,   6.955
   458.4,0.000729,0.000705,-0.016262,0.000470,   6.961
   458.6,0.000732,0.000712,-0.016137,0.000470,   6.958
   458.8,0.000722,0.000716,-0.015921,0.000470,   6.957
   459.0,0.000721,0.000715,-0.015864,0.000470,   6.956
   459.2,0.000700,0.000720,-0.015871,0.000470,   6.957
   459.4,0.000667,0.000725,-0.015904,0.000470,   6.952
   459.6,0.000636,0.000728,-0.016321,0.000470,   6.952
   459.8,0.000632,0.000726,-0.016960,0.000470,   6.949
   460.0,0.000636,0.000726,-0.017825,0.000470,   6.951
   460.2,0.000652,0.000725,-0.017860,0.000447,   6.949
   460.4,0.000664,0.000716,-0.017563,0.000447,   6.946
   460.6,0.000679,0.000700,-0.016971,0.000434,   6.946
   460.8,0.000689,0.000684,-0.016744,0.000385,   6.944
   461.0,0.000694,0.000675,-0.016532,0.000395,   6.945
   461.2,0.000703,0.000672,-0.016348,0.000395,   6.940
   461.4,0.000715,0.000675,-0.016205,0.000359,   6.943
   461.6,0.000714,0.000674,-0.016104,0.000408,   6.940
   461.8,0.000720,0.000680,-0.016054,0.000434,   6.938
   462.0,0.000726,0.000691,-0.016009,0.000399,   6.938
   462.2,0.000732,0.000690,-0.016009,0.000434,   6.938
   462.4,0.000737,0.000690,-0.016042,0.000447,   6.937
   462.6,0.000737,0.000702,-0.016020,0.000425,   6.938
   462.8,0.000740,0.000704,-0.015999,0.000447,   6.939
   463.0,0.000743,0.000704,-0.015959,0.000447,   6.939
   463.2,0.000746,0.000709,-0.016119,0.000425,   6.937
   463.4,0.000749,0.000719,-0.016377,0.000461,   6.936
   463.6,0.000752,0.000721,-0.016730,0.000461,   6.936
   463.8,0.000755,0.000723,-0.016708,0.000425,   6.934
   464.0,0.000755,0.000731,-0.016543,0.000461,   6.934
   464.2,0.000758,0.000731,-0.016259,0.000461,   6.930
   464.4,0.000755,0.000733,-0.016185,0.000425,   6.933
   464.6,0.000749,0.000732,-0.016138,0.000461,   6.932
   464.8,0.000736,0.000737,-0.016160,0.000461,   6.930
   465.0,0.000725,0.000741,-0.016155,0.000438,   6.923
   465.2,0.000704,0.000743,-0.016148,0.000474,   6.927
   465.4,0.000695,0.000748,-0.016169,0.000474,   6.928
   465.6,0.000697,0.000749,-0.016113,0.000425,   6.925
   465.8,0.000704,0.000732,-0.016015,0.000447,   6.925
   466.0,0.000707,0.000723,-0.015888,0.000421,   6.927
   466.2,0.000716,0.000705,-0.015814,0.000421,   6.919
   466.4,0.000722,0.000701,-0.015752,0.000421,   6.927
   466.6,0.000728,0.000699,-0.015702,0.000408,   6.921
   466.8,0.000730,0.000705,-0.015645,0.000434,   6.922
   467.0,0.000733,0.000709,-0.015664,0.000399,   6.918
   467.2,0.000739,0.000718,-0.015709,0.000434,   6.917
   467.4,0.000732,0.000722,-0.015783,0.000447,   6.920
   467.6,0.000732,0.000721,-0.016006,0.000425,   6.914
   467.8,0.000735,0.000728,-0.016337,0.000447,   6.915
   468.0,0.000731,0.000730,-0.016735,0.000447,   6.918
   468.2,0.000744,0.000732,-0.016735,0.000425,   6.914
   468.4,0.000747,0.000731,-0.016593,0.000447,   6.915
   468.6,0.000746,0.000733,-0.016285,0.000447,   6.918
   468.8,0.000749,0.000733,-0.016224,0.000425,   6.911
   469.0,0.000751,0.000733,-0.016207,0.000461,   6.909
   469.2,0.000751,0.000734,-0.016228,0.000461,   6.911
   469.4,0.000753,0.000735,-0.016167,0.000438,   6.909
   469.6,0.000735,0.000737,-0.016093,0.000474,   6.907
   469.8,0.000702,0.000742,-0.016020,0.000474,   6.906
   470.0,0.000671,0.000746,-0.016003,0.000474,   6.906
   470.2,0.000663,0.000748,-0.016027,0.000496,   6.906
   470.4,0.000659,0.000748,-0.016076,0.000496,   6.906
   470.6,0.000671,0.000746,-0.016436,0.000474,   6.905
   470.8,0.000674,0.000732,-0.016985,0.000474,   6.899
   471.0,0.000673,0.000722,-0.017683,0.000461,   6.899
   471.2,0.000689,0.000706,-0.017711,0.000434,   6.894
   471.4,0.000697,0.000696,-0.017471,0.000430,   6.897
   471.6,0.000699,0.000689,-0.016973,0.000430,   6.899
   471.8,0.000709,0.000692,-0.016822,0.000430,   6.895
   472.0,0.000715,0.000690,-0.016673,0.000443,   6.897
   472.2,0.000718,0.000688,-0.016560,0.000470,   6.892
   472.4,0.000711,0.000698,-0.016396,0.000470,   6.900
   472.6,0.000718,0.000700,-0.016233,0.000470,   6.892
   472.8,0.000718,0.000700,-0.016057,0.000483,   6.893
   473.0,0.000711,0.000705,-0.015962,0.000496,   6.891
   473.2,0.000718,0.000709,-0.015900,0.000483,   6.890
   473.4,0.000724,0.000709,-0.015872,0.000483,   6.886
   473.6,0.000720,0.000706,-0.015890,0.000496,   6.892
   473.8,0.000732,0.000711,-0.015947,0.000496,   6.888
   474.0,0.000738,0.000714,-0.016042,0.000496,   6.888
   474.2,0.000731,0.000712,-0.016329,0.000496,   6.893
   474.4,0.000735,0.000715,-0.016717,0.000496,   6.890
   474.6,0.000735,0.000715,-0.017211,0.000496,   6.888
   474.8,0.000728,0.000717,-0.017347,0.000461,   6.891
   475.0,0.000729,0.000712,-0.017359,0.000509,   6.885
   475.2,0.000721,0.000718,-0.017258,0.000496,   6.883
   475.4,0.000702,0.000725,-0.017189,0.000509,   6.884
   475.6,0.000689,0.000729,-0.017088,0.000509,   6.883
   475.8,0.000689,0.000729,-0.016939,0.000509,   6.884
   476.0,0.000682,0.000730,-0.016762,0.000496,   6.878
   476.2,0.000695,0.000726,-0.016630,0.000483,   6.879
   476.4,0.000700,0.000716,-0.016509,0.000457,   6.879
   476.6,0.000696,0.000691,-0.016393,0.000443,   6.883
   476.8,0.000699,0.000681,-0.016559,0.000443,   6.880
   477.0,0.000702,0.000683,-0.016850,0.000443,   6.874
   477.2,0.000712,0.000689,-0.017263,0.000457,   6.877
   477.4,0.000725,0.000688,-0.017383,0.000457,   6.877
   477.6,0.000725,0.000688,-0.017419,0.000457,   6.873
   477.8,0.000725,0.000702,-0.017350,0.000470,   6.874
   478.0,0.000725,0.000704,-0.017204,0.000470,   6.873
   478.2,0.000728,0.000707,-0.016965,0.000470,   6.870
   478.4,0.000724,0.000709,-0.016653,0.000483,   6.867
   478.6,0.000724,0.000714,-0.016516,0.000483,   6.873
   478.8,0.000726,0.000711,-0.016431,0.000470,   6.870
   479.0,0.000729,0.000718,-0.016402,0.000470,   6.871
   479.2,0.000730,0.000718,-0.016367,0.000483,   6.873
   479.4,0.000730,0.000721,-0.016355,0.000483,   6.869
   479.6,0.000733,0.000721,-0.016402,0.000483,   6.873
   479.8,0.000730,0.000721,-0.016393,0.000496,   6.871
   480.0,0.000719,0.000723,-0.016352,0.000483,   6.865
   480.2,0.000704,0.000722,-0.016319,0.000483,   6.872
   480.4,0.000674,0.000723,-0.016371,0.000496,   6.867
   480.6,0.000655,0.000723,-0.016456,0.000496,   6.864
   480.8,0.000649,0.000723,-0.016580,0.000496,   6.864
   481.0,0.000645,0.000720,-0.016546,0.000496,   6.867
   481.2,0.000658,0.000708,-0.016433,0.000496,   6.861
   481.4,0.000664,0.000705,-0.016274,0.000483,   6.858
   481.6,0.000672,0.000690,-0.016172,0.000457,   6.860
   481.8,0.000678,0.000681,-0.016063,0.000417,   6.862
   482.0,0.000684,0.000671,-0.015966,0.000417,   6.854
   482.2,0.000686,0.000664,-0.016151,0.000417,   6.856
   482.4,0.000692,0.000659,-0.016475,0.000430,   6.857
   482.6,0.000695,0.000661,-0.016960,0.000457,   6.857
   482.8,0.000693,0.000666,-0.017002,0.000457,   6.855
   483.0,0.000696,0.000665,-0.016877,0.000470,   6.854
   483.2,0.000699,0.000671,-0.016610,0.000483,   6.855
   483.4,0.000702,0.000684,-0.016536,0.000496,   6.853
   483.6,0.000696,0.000684,-0.016486,0.000483,   6.851
   483.8,0.000699,0.000681,-0.016458,0.000483,   6.850
   484.0,0.000702,0.000687,-0.016607,0.000461,   6.849
   484.2,0.000705,0.000689,-0.016834,0.000483,   6.853
   484.4,0.000708,0.000692,-0.017169,0.000483,   6.849
   484.6,0.000708,0.000698,-0.017214,0.000496,   6.848
   484.8,0.000708,0.000700,-0.017181,0.000496,   6.851
   485.0,0.000711,0.000702,-0.017044,0.000496,   6.852
   485.2,0.000711,0.000704,-0.016822,0.000496,   6.847
   485.4,0.000708,0.000701,-0.016760,0.000509,   6.846
   485.6,0.000702,0.000701,-0.016685,0.000509,   6.849
   485.8,0.000685,0.000704,-0.016640,0.000509,   6.844
   486.0,0.000668,0.000699,-0.016789,0.000509,   6.843
   486.2,0.000665,0.000704,-0.017035,0.000496,   6.841
   486.4,0.000664,0.000707,-0.017398,0.000483,   6.846
   486.6,0.000677,0.000690,-0.017341,0.000470,   6.844
   486.8,0.000683,0.000681,-0.017131,0.000457,   6.843
   487.0,0.000685,0.000661,-0.016779,0.000443,   6.844
   487.2,0.000691,0.000654,-0.016699,0.000430,   6.841
   487.4,0.000696,0.000649,-0.016692,0.000430,   6.840
   487.6,0.000705,0.000655,-0.016754,0.000443,   6.843
   487.8,0.000711,0.000662,-0.016687,0.000430,   6.838
   488.0,0.000714,0.000667,-0.016585,0.000430,   6.835
   488.2,0.000717,0.000671,-0.016462,0.000457,   6.839
   488.4,0.000720,0.000681,-0.016417,0.000457,   6.835
   488.6,0.000725,0.000685,-0.016412,0.000470,   6.840
   488.8,0.000728,0.000689,-0.016434,0.000483,   6.836
   489.0,0.000728,0.000694,-0.016793,0.000483,   6.834
   489.2,0.000731,0.000694,-0.017346,0.000470,   6.836
   489.4,0.000734,0.000698,-0.018072,0.000470,   6.841
   489.6,0.000727,0.000704,-0.018083,0.000483,   6.837
   489.8,0.000737,0.000704,-0.017834,0.000483,   6.839
   490.0,0.000736,0.000706,-0.017334,0.000483,   6.838
   490.2,0.000743,0.000712,-0.017140,0.000496,   6.838
   490.4,0.000750,0.000714,-0.016987,0.000496,   6.834
   490.6,0.000738,0.000718,-0.016878,0.000496,   6.834
   490.8,0.000711,0.000721,-0.016776,0.000496,   6.832
   491.0,0.000676,0.000723,-0.016696,0.000496,   6.835
   491.2,0.000670,0.000724,-0.016644,0.000496,   6.829
   491.4,0.000666,0.000727,-0.017039,0.000496,   6.832
   491.6,0.000675,0.000724,-0.017652,0.000496,   6.828
   491.8,0.000688,0.000713,-0.018490,0.000483,   6.830
   492.0,0.000700,0.000704,-0.018439,0.000457,   6.834
   492.2,0.000717,0.000694,-0.018046,0.000417,   6.830
   492.4,0.000726,0.000686,-0.017311,0.000417,   6.828
   492.6,0.000730,0.000683,-0.017089,0.000430,   6.831
   492.8,0.000729,0.000682,-0.016957,0.000443,   6.830
   493.0,0.000728,0.000682,-0.016936,0.000457,   6.824
   493.2,0.000727,0.000691,-0.016822,0.000434,   6.826
   493.4,0.000734,0.000698,-0.016725,0.000470,   6.826
   493.6,0.000740,0.000699,-0.016633,0.000457,   6.830
   493.8,0.000736,0.000709,-0.016564,0.000470,   6.821
   494.0,0.000736,0.000718,-0.016524,0.000447,   6.824
   494.2,0.000732,0.000719,-0.016479,0.000461,   6.822
   494.4,0.000738,0.000728,-0.016479,0.000474,   6.824
   494.6,0.000735,0.000730,-0.016463,0.000438,   6.826
   494.8,0.000735,0.000729,-0.016463,0.000461,   6.823
   495.0,0.000735,0.000728,-0.016479,0.000461,   6.822
   495.2,0.000736,0.000726,-0.016474,0.000438,   6.824
   495.4,0.000736,0.000726,-0.016479,0.000474,   6.824
   495.6,0.000732,0.000728,-0.016496,0.000474,   6.820
   495.8,0.000739,0.000724,-0.016479,0.000487,   6.820
   496.0,0.000730,0.000722,-0.016467,0.000509,   6.817
   496.2,0.000709,0.000729,-0.016456,0.000509,   6.820
   496.4,0.000698,0.000727,-0.016697,0.000523,   6.817
   496.6,0.000695,0.000727,-0.017056,0.000509,   6.820
   496.8,0.000685,0.000721,-0.017551,0.000509,   6.818
   497.0,0.000698,0.000725,-0.017523,0.000509,   6.816
   497.2,0.000704,0.000717,-0.017301,0.000483,   6.819
   497.4,0.000704,0.000700,-0.016884,0.000483,   6.814
   497.6,0.000714,0.000683,-0.016706,0.000483,   6.814
   497.8,0.000717,0.000679,-0.016541,0.000470,   6.814
   498.0,0.000713,0.000676,-0.016427,0.000470,   6.811
   498.2,0.000713,0.000680,-0.016394,0.000470,   6.811
   498.4,0.000716,0.000682,-0.016416,0.000470,   6.814
   498.6,0.000716,0.000679,-0.016508,0.000470,   6.815
   498.8,0.000716,0.000693,-0.016526,0.000483,   6.814
   499.0,0.000720,0.000698,-0.016543,0.000483,   6.811
   499.2,0.000718,0.000698,-0.016555,0.000483,   6.808
   499.4,0.000721,0.000701,-0.016562,0.000496,   6.808
   499.6,0.000724,0.000705,-0.016555,0.000483,   6.809
   499.8,0.000720,0.000702,-0.016555,0.000483,   6.809
   500.0,0.000717,0.000704,-0.016834,0.000496,   6.809
   500.2,0.000717,0.000709,-0.017231,0.000483,   6.803
   500.4,0.000710,0.000703,-0.017776,0.000483,   6.810
   500.6,0.000712,0.000708,-0.017776,0.000496,   6.810
   500.8,0.000706,0.000707,-0.017596,0.000496,   6.807
   501.0,0.000684,0.000699,-0.017200,0.000496,   6.803
   501.2,0.000668,0.000698,-0.017077,0.000496,   6.805
   501.4,0.000636,0.000693,-0.016992,0.000496,   6.802
   501.6,0.000620,0.000694,-0.016940,0.000496,   6.801
   501.8,0.000624,0.000695,-0.016878,0.000461,   6.804
   502.0,0.000627,0.000683,-0.016826,0.000509,   6.802
   502.2,0.000626,0.000680,-0.016810,0.000496,   6.801
   502.4,0.000642,0.000671,-0.016753,0.000483,   6.800
   502.6,0.000651,0.000660,-0.016684,0.000457,   6.801
   502.8,0.000649,0.000651,-0.016623,0.000404,   6.799
   503.0,0.000665,0.000641,-0.016535,0.000404,   6.798
   503.2,0.000668,0.000639,-0.016571,0.000391,   6.792
   503.4,0.000664,0.000638,-0.016651,0.000404,   6.798
   503.6,0.000671,0.000652,-0.016753,0.000417,   6.795
   503.8,0.000668,0.000656,-0.016772,0.000430,   6.791
   504.0,0.000667,0.000656,-0.016750,0.000443,   6.793
   504.2,0.000677,0.000668,-0.016700,0.000457,   6.790
   504.4,0.000677,0.000672,-0.016769,0.000457,   6.793
   504.6,0.000680,0.000671,-0.016859,0.000457,   6.791
   504.8,0.000683,0.000669,-0.016994,0.000457,   6.791
   505.0,0.000686,0.000669,-0.016989,0.000457,   6.789
   505.2,0.000686,0.000666,-0.016951,0.000457,   6.789
   505.4,0.000680,0.000670,-0.016866,0.000457,   6.789
   505.6,0.000686,0.000678,-0.016799,0.000457,   6.789
   505.8,0.000686,0.000678,-0.016716,0.000457,   6.786
   506.0,0.000680,0.000681,-0.016614,0.000470,   6.786
   506.2,0.000686,0.000685,-0.016621,0.000470,   6.785
   506.4,0.000681,0.000689,-0.016678,0.000470,   6.783
   506.6,0.000669,0.000687,-0.016768,0.000483,   6.782
   506.8,0.000655,0.000687,-0.017026,0.000483,   6.777
   507.0,0.000634,0.000687,-0.017378,0.000470,   6.781
   507.2,0.000627,0.000687,-0.017837,0.000457,   6.778
   507.4,0.000637,0.000685,-0.017821,0.000457,   6.779
   507.6,0.000643,0.000674,-0.017604,0.000443,   6.780
   507.8,0.000649,0.000656,-0.017217,0.000443,   6.777
   508.0,0.000652,0.000632,-0.017099,0.000430,   6.771
   508.2,0.000661,0.000627,-0.017002,0.000417,   6.775
   508.4,0.000664,0.000627,-0.016957,0.000430,   6.770
