Run Name,dead time
Run Date,02:09:02 PM   03-31-09
Method Name,Dead time
Export Format Version, 1.00
Method ID,  738
Points/Second, 5.00
Number of Records,   1350
Offset from Run Start Time,00:00:00
Run End Time,00:04:30
Time,Second
QuadTec 1, (280.0 nm), AU
QuadTec 2, (260.0 nm), AU
Gradient Pump,%B
QuadTec 3, (214.0 nm), AU
QuadTec 4, (405.0 nm), AU
Conductivity,mS/cm
Trace 6,<Not Available>
GP Pressure,<Not Selected>
Volume,<Not Selected>
Fraction,<Not Available>
Time,QuadTec 1,QuadTec 2,Gradient Pump,QuadTec 3,QuadTec 4,Conductivity
     0.0,-0.000211,-0.000216,100,-0.000100,-0.000167,  81.883
     0.2,-0.000211,-0.000218,100,-0.000096,-0.000189,  81.881
     0.4,-0.000211,-0.000225,100,-0.000098,-0.000176,  81.879
     0.6,-0.000219,-0.000225,100,-0.000113,-0.000198,  81.876
     0.8,-0.000224,-0.000229,100,-0.000126,-0.000185,  81.881
     1.0,-0.000216,-0.000238,100,-0.000150,-0.000219,  81.875
     1.2,-0.000212,-0.000237,100,-0.000173,-0.000207,  81.879
     1.4,-0.000215,-0.000240,100,-0.000205,-0.000194,  81.877
     1.6,-0.000221,-0.000242,100,-0.000222,-0.000228,  81.878
     1.8,-0.000226,-0.000239,100,-0.000239,-0.000182,  81.877
     2.0,-0.000229,-0.000243,100,-0.000256,-0.000203,  81.875
     2.2,-0.000234,-0.000243,100,-0.000281,-0.000225,  81.878
     2.4,0.000040,0.000030,100,-0.000307,-0.000212,  81.883
     2.6,0.000042,0.000030,100,-0.000330,-0.000221,  81.881
     2.8,0.000020,-0.000109,100,-0.000311,-0.000221,  81.890
     3.0,0.000019,-0.000381,100,-0.000269,-0.000221,  81.888
     3.2,0.000000,-0.000381,100,-0.000207,-0.000243,  81.888
     3.4,0.000000,0.000000,100,-0.000198,-0.000221,  81.889
     3.6,0.000000,0.000000,100,-0.000200,0.000000,  81.894
     3.8,0.000000,0.000000,100,-0.000696,0.000000,  81.897
     4.0,0.000000,0.000000,100,-0.000696,0.000000,  81.891
     4.2,0.000000,0.000000,100,-0.000696,0.000000,  81.893
     4.4,0.000000,0.000000,100,-0.000696,0.000000,  81.891
     4.6,0.000000,0.000000,100,0.000000,0.000000,  81.896
     4.8,0.000000,0.000000,100,0.000000,0.000000,  81.892
     5.0,0.000000,0.000000,100,0.000000,0.000000,  81.893
     5.2,0.000000,0.000000,100,0.000000,0.000000,  81.895
     5.4,0.000000,0.000000,100,0.000000,0.000000,  81.888
     5.6,0.000000,0.000000,100,0.000000,0.000000,  81.892
     5.8,0.000000,0.000000,100,0.000000,0.000000,  81.896
     6.0,0.000000,0.000000,100,0.000000,0.000000,  81.894
     6.2,0.000000,0.000000,100,0.000000,0.000000,  81.894
     6.4,0.000000,0.000000,100,0.000000,0.000000,  81.890
     6.6,0.000000,0.000000,100,0.000000,0.000000,  81.895
     6.8,-0.000010,0.000000,100,0.000000,0.000000,  81.896
     7.0,-0.000014,-0.000037,100,0.000000,0.000000,  81.894
     7.2,-0.000017,-0.000043,100,0.000000,0.000000,  81.887
     7.4,-0.000024,-0.000043,100,0.000000,0.000000,  81.895
     7.6,-0.000027,-0.000047,100,0.000000,0.000000,  81.883
     7.8,-0.000030,-0.000050,100,0.000000,0.000000,  81.896
     8.0,-0.000037,-0.000053,100,0.000000,-0.000034,  81.903
     8.2,-0.000045,-0.000056,100,0.000000,-0.000034,  81.899
     8.4,-0.000049,-0.000060,100,0.000006,-0.000009,  81.896
     8.6,-0.000055,-0.000067,100,-0.000086,-0.000043,  81.901
     8.8,-0.000059,-0.000072,100,-0.000148,-0.000052,  81.897
     9.0,-0.000063,-0.000072,100,-0.000185,-0.000074,  81.897
     9.2,-0.000072,-0.000079,100,-0.000189,-0.000061,  81.901
     9.4,-0.000084,-0.000083,100,-0.000166,-0.000083,  81.904
     9.6,-0.000083,-0.000086,100,-0.000118,-0.000104,  81.897
     9.8,-0.000085,-0.000093,100,-0.000139,-0.000061,  81.897
    10.0,-0.000099,-0.000102,100,-0.000175,-0.000049,  81.899
    10.2,-0.000106,-0.000105,100,-0.000229,-0.000104,  81.898
    10.4,-0.000110,-0.000110,100,-0.000256,-0.000092,  81.895
    10.6,-0.000117,-0.000119,100,-0.000277,-0.000113,  81.894
    10.8,-0.000125,-0.000123,100,-0.000286,-0.000113,  81.898
    11.0,-0.000137,-0.000129,100,-0.000274,-0.000101,  81.898
    11.2,-0.000144,-0.000136,100,-0.000247,-0.000122,  81.901
    11.4,-0.000147,-0.000142,100,-0.000204,-0.000122,  81.901
    11.6,-0.000154,-0.000148,100,-0.000493,-0.000122,  81.906
    11.8,-0.000155,-0.000155,100,-0.000944,-0.000131,  81.901
    12.0,-0.000160,-0.000164,100,-0.001560,-0.000131,  81.911
    12.2,-0.000163,-0.000174,100,-0.001595,-0.000131,  81.910
    12.4,-0.000175,-0.000178,100,-0.001421,-0.000153,  81.915
    12.6,-0.000176,-0.000187,100,-0.001035,-0.000119,  81.918
    12.8,-0.000180,-0.000198,100,-0.000915,-0.000131,  81.919
    13.0,-0.000192,-0.000200,100,-0.000836,-0.000166,  81.920
    13.2,-0.000200,-0.000204,100,-0.000782,-0.000131,  81.921
    13.4,-0.000204,-0.000215,100,-0.000684,-0.000131,  81.915
    13.6,-0.000210,-0.000219,100,-0.000585,-0.000166,  81.923
    13.8,-0.000221,-0.000229,100,-0.000485,-0.000153,  81.924
    14.0,-0.000227,-0.000237,100,-0.000436,-0.000153,  81.923
    14.2,-0.000235,-0.000241,100,-0.000416,-0.000187,  81.921
    14.4,-0.000246,-0.000245,100,-0.000434,-0.000175,  81.927
    14.6,-0.000250,-0.000254,100,-0.000403,-0.000175,  81.925
    14.8,-0.000258,-0.000262,100,-0.000357,-0.000162,  81.931
    15.0,-0.000269,-0.000270,100,-0.000315,-0.000162,  81.931
    15.2,-0.000273,-0.000278,100,-0.000311,-0.000184,  81.932
    15.4,-0.000281,-0.000284,100,-0.000319,-0.000184,  81.935
    15.6,-0.000287,-0.000281,100,-0.000343,-0.000171,  81.937
    15.8,-0.000292,-0.000288,100,-0.000431,-0.000205,  81.942
    16.0,-0.000299,-0.000300,100,-0.000550,-0.000205,  81.934
    16.2,-0.000308,-0.000306,100,-0.000715,-0.000193,  81.940
    16.4,-0.000311,-0.000314,100,-0.000915,-0.000227,  81.946
    16.6,-0.000317,-0.000321,100,-0.000903,-0.000205,  81.947
    16.8,-0.000321,-0.000325,100,-0.000826,-0.000193,  81.949
    17.0,-0.000327,-0.000325,100,-0.000690,-0.000227,  81.944
    17.2,-0.000334,-0.000332,100,-0.000597,-0.000227,  81.950
    17.4,-0.000337,-0.000334,100,-0.000508,-0.000214,  81.955
    17.6,-0.000340,-0.000336,100,-0.000414,-0.000227,  81.951
    17.8,-0.000349,-0.000341,100,-0.000372,-0.000239,  81.958
    18.0,-0.000354,-0.000342,100,-0.000353,-0.000227,  81.957
    18.2,-0.000358,-0.000348,100,-0.000375,-0.000248,  81.959
    18.4,-0.000364,-0.000354,100,-0.000358,-0.000248,  81.958
    18.6,-0.000370,-0.000361,100,-0.000337,-0.000236,  81.963
    18.8,-0.000367,-0.000362,100,-0.000317,-0.000270,  81.956
    19.0,-0.000371,-0.000365,100,-0.000296,-0.000248,  81.957
    19.2,-0.000372,-0.000374,100,-0.000274,-0.000236,  81.962
    19.4,-0.000383,-0.000376,100,-0.000241,-0.000283,  81.962
    19.6,-0.000389,-0.000381,100,-0.000369,-0.000261,  81.967
    19.8,-0.000390,-0.000386,100,-0.000577,-0.000248,  81.971
    20.0,-0.000397,-0.000389,100,-0.000858,-0.000283,  82.019
    20.2,-0.000405,-0.000396,100,-0.000876,-0.000248,  82.018
    20.4,-0.000412,-0.000403,100,-0.000799,-0.000257,  82.020
    20.6,-0.000414,-0.000406,100,-0.000639,-0.000257,  82.032
    20.8,-0.000414,-0.000410,100,-0.000737,-0.000257,  82.031
    21.0,-0.000417,-0.000419,100,-0.000917,-0.000279,  82.034
    21.2,-0.000418,-0.000423,100,-0.001179,-0.000266,  82.035
    21.4,-0.000419,-0.000430,100,-0.001146,-0.000266,  82.039
    21.6,-0.000426,-0.000433,100,-0.000996,-0.000301,  82.045
    21.8,-0.000435,-0.000438,100,-0.000745,-0.000313,  82.043
    22.0,-0.000440,-0.000445,100,-0.000661,-0.000292,  82.044
    22.2,-0.000447,-0.000445,100,-0.000612,-0.000326,  82.049
    22.4,-0.000448,-0.000447,100,-0.000592,-0.000313,  82.045
    22.6,-0.000448,-0.000454,100,-0.000554,-0.000313,  82.049
    22.8,-0.000457,-0.000459,100,-0.000540,-0.000347,  82.052
    23.0,-0.000462,-0.000461,100,-0.000531,-0.000322,  82.049
    23.2,-0.000462,-0.000464,100,-0.000529,-0.000356,  82.052
    23.4,-0.000465,-0.000473,100,-0.000537,-0.000356,  82.054
    23.6,-0.000471,-0.000478,100,-0.000558,-0.000344,  82.056
    23.8,-0.000480,-0.000484,100,-0.000522,-0.000356,  82.057
    24.0,-0.000485,-0.000489,100,-0.000457,-0.000356,  82.067
    24.2,-0.000491,-0.000493,100,-0.000377,-0.000344,  82.066
    24.4,-0.000496,-0.000500,100,-0.000339,-0.000378,  82.072
    24.6,-0.000505,-0.000507,100,-0.000313,-0.000378,  82.068
    24.8,-0.000514,-0.000515,100,-0.000288,-0.000400,  82.075
    25.0,-0.000517,-0.000521,100,-0.000257,-0.000365,  82.074
    25.2,-0.000529,-0.000524,100,-0.000230,-0.000365,  82.074
    25.4,-0.000530,-0.000531,100,-0.000200,-0.000353,  82.081
    25.6,-0.000536,-0.000537,100,-0.000175,-0.000387,  82.080
    25.8,-0.000551,-0.000542,100,-0.000139,-0.000400,  82.080
    26.0,-0.000552,-0.000544,100,-0.000112,-0.000387,  82.084
    26.2,-0.000555,-0.000549,100,-0.000079,-0.000421,  82.088
    26.4,-0.000559,-0.000553,100,-0.000097,-0.000400,  82.092
    26.6,-0.000563,-0.000559,100,-0.000138,-0.000387,  82.092
    26.8,-0.000567,-0.000560,100,-0.000205,-0.000421,  82.096
    27.0,-0.000573,-0.000564,100,-0.000217,-0.000421,  82.094
    27.2,-0.000576,-0.000568,100,-0.000209,-0.000409,  82.094
    27.4,-0.000582,-0.000572,100,-0.000183,-0.000443,  82.102
    27.6,-0.000588,-0.000579,100,-0.000189,-0.000443,  82.102
    27.8,-0.000597,-0.000584,100,-0.000192,-0.000430,  82.103
    28.0,-0.000598,-0.000586,100,-0.000193,-0.000465,  82.104
    28.2,-0.000605,-0.000591,100,-0.000215,-0.000443,  82.106
    28.4,-0.000608,-0.000598,100,-0.000246,-0.000465,  82.110
    28.6,-0.000611,-0.000600,100,-0.000278,-0.000465,  82.110
    28.8,-0.000620,-0.000605,100,-0.000265,-0.000465,  82.113
    29.0,-0.000629,-0.000615,100,-0.000229,-0.000486,  82.110
    29.2,-0.000630,-0.000621,100,-0.000172,-0.000486,  82.114
    29.4,-0.000633,-0.000625,100,-0.000179,-0.000486,  82.121
    29.6,-0.000640,-0.000635,100,-0.000214,-0.000508,  82.116
    29.8,-0.000643,-0.000637,100,-0.000274,-0.000495,  82.127
    30.0,-0.000646,-0.000645,100,-0.000257,-0.000508,  82.125
    30.2,-0.000650,-0.000650,100,-0.000225,-0.000529,  82.129
    30.4,-0.000657,-0.000652,100,-0.000182,-0.000504,  82.130
    30.6,-0.000656,-0.000657,100,-0.000228,-0.000526,  82.134
    30.8,-0.000662,-0.000664,100,-0.000309,-0.000513,  82.130
    31.0,-0.000663,-0.000666,100,-0.000437,-0.000526,  82.129
    31.2,-0.000672,-0.000675,100,-0.000749,-0.000539,  82.120
    31.4,-0.000678,-0.000679,100,-0.001158,-0.000526,  82.132
    31.6,-0.000683,-0.000680,100,-0.001676,-0.000539,  82.134
    31.8,-0.000687,-0.000687,100,-0.001677,-0.000539,  82.134
    32.0,-0.000686,-0.000691,100,-0.001460,-0.000526,  82.134
    32.2,-0.000692,-0.000696,100,-0.001042,-0.000560,  82.136
    32.4,-0.000698,-0.000701,100,-0.000880,-0.000513,  82.140
    32.6,-0.000702,-0.000703,100,-0.000734,-0.000548,  82.139
    32.8,-0.000709,-0.000709,100,-0.000620,-0.000535,  82.141
    33.0,-0.000706,-0.000712,100,-0.000544,-0.000569,  82.143
    33.2,-0.000713,-0.000716,100,-0.000495,-0.000548,  82.149
    33.4,-0.000717,-0.000715,100,-0.000484,-0.000535,  82.145
    33.6,-0.000718,-0.000717,100,-0.000447,-0.000569,  82.146
    33.8,-0.000730,-0.000725,100,-0.000412,-0.000557,  82.147
    34.0,-0.000737,-0.000730,100,-0.000385,-0.000557,  82.151
    34.2,-0.000740,-0.000733,100,-0.000360,-0.000591,  82.148
    34.4,-0.000744,-0.000740,100,-0.000328,-0.000557,  82.146
    34.6,-0.000751,-0.000747,100,-0.000302,-0.000544,  82.152
    34.8,-0.000759,-0.000750,100,-0.000283,-0.000566,  82.149
    35.0,-0.000766,-0.000756,100,-0.000305,-0.000566,  82.155
    35.2,-0.000767,-0.000764,100,-0.000365,-0.000553,  82.155
    35.4,-0.000774,-0.000769,100,-0.000449,-0.000575,  82.155
    35.6,-0.000780,-0.000772,100,-0.000624,-0.000587,  82.157
    35.8,-0.000789,-0.000775,100,-0.000873,-0.000622,  82.152
    36.0,-0.000790,-0.000775,100,-0.001185,-0.000622,  82.161
    36.2,-0.000796,-0.000780,100,-0.001175,-0.000622,  82.157
    36.4,-0.000803,-0.000785,100,-0.001038,-0.000656,  82.163
    36.6,-0.000804,-0.000791,100,-0.000769,-0.000643,  82.164
    36.8,-0.000816,-0.000800,100,-0.000688,-0.000643,  82.161
    37.0,-0.000822,-0.000803,100,-0.000642,-0.000677,  82.159
    37.2,-0.000823,-0.000807,100,-0.000624,-0.000665,  82.162
    37.4,-0.000832,-0.000815,100,-0.000554,-0.000677,  82.164
    37.6,-0.000837,-0.000822,100,-0.000483,-0.000712,  82.164
    37.8,-0.000840,-0.000829,100,-0.000411,-0.000665,  82.164
    38.0,-0.000843,-0.000840,100,-0.000358,-0.000677,  82.164
    38.2,-0.000855,-0.000841,100,-0.000313,-0.000712,  82.165
    38.4,-0.000858,-0.000843,100,-0.000290,-0.000699,  82.165
    38.6,-0.000867,-0.000852,100,-0.000267,-0.000712,  82.171
    38.8,-0.000874,-0.000861,100,-0.000254,-0.000733,  82.168
    39.0,-0.000885,-0.000867,100,-0.000246,-0.000721,  82.166
    39.2,-0.000882,-0.000877,100,-0.000401,-0.000708,  82.168
    39.4,-0.000889,-0.000880,100,-0.000656,-0.000730,  82.164
    39.6,-0.000895,-0.000885,100,-0.000993,-0.000742,  82.165
    39.8,-0.000899,-0.000892,100,-0.001028,-0.000742,  82.165
    40.0,-0.000905,-0.000900,100,-0.000962,-0.000764,  82.164
    40.2,-0.000912,-0.000906,100,-0.000784,-0.000777,  82.166
    40.4,-0.000915,-0.000912,100,-0.000704,-0.000742,  82.161
    40.6,-0.000922,-0.000919,100,-0.000627,-0.000730,  82.164
    40.8,-0.000923,-0.000920,100,-0.000542,-0.000764,  82.161
    41.0,-0.000931,-0.000929,100,-0.000518,-0.000752,  82.161
    41.2,-0.000943,-0.000933,100,-0.000521,-0.000739,  82.161
    41.4,-0.000947,-0.000934,100,-0.000548,-0.000795,  82.158
    41.6,-0.000950,-0.000940,100,-0.000544,-0.000761,  82.165
    41.8,-0.000956,-0.000941,100,-0.000531,-0.000761,  82.162
    42.0,-0.000961,-0.000948,100,-0.000513,-0.000735,  82.158
    42.2,-0.000962,-0.000954,100,-0.000489,-0.000735,  82.155
    42.4,-0.000968,-0.000956,100,-0.000462,-0.000782,  82.158
    42.6,-0.000975,-0.000957,100,-0.000425,-0.000817,  82.155
    42.8,-0.000976,-0.000966,100,-0.000384,-0.000804,  82.155
    43.0,-0.000980,-0.000966,100,-0.000365,-0.000804,  82.156
    43.2,-0.000987,-0.000969,100,-0.000342,-0.000838,  82.155
    43.4,-0.000990,-0.000973,100,-0.000324,-0.000791,  82.154
    43.6,-0.000994,-0.000978,100,-0.000541,-0.000804,  82.158
    43.8,-0.001001,-0.000980,100,-0.000879,-0.000826,  82.150
    44.0,-0.001007,-0.000985,100,-0.001337,-0.000779,  82.152
    44.2,-0.001016,-0.000990,100,-0.001346,-0.000779,  82.150
    44.4,-0.001022,-0.001000,100,-0.001181,-0.000800,  82.150
    44.6,-0.001024,-0.001006,100,-0.000860,-0.000800,  82.150
    44.8,-0.001033,-0.001006,100,-0.000761,-0.000800,  82.144
    45.0,-0.001034,-0.001014,100,-0.000690,-0.000822,  82.145
    45.2,-0.001040,-0.001017,100,-0.000650,-0.000822,  82.148
    45.4,-0.001047,-0.001020,100,-0.000575,-0.000810,  82.144
    45.6,-0.001051,-0.001027,100,-0.000503,-0.000831,  82.150
    45.8,-0.001052,-0.001031,100,-0.000437,-0.000831,  82.136
    46.0,-0.001056,-0.001038,100,-0.000405,-0.000831,  82.141
    46.2,-0.001057,-0.001045,100,-0.000388,-0.000853,  82.141
    46.4,-0.001061,-0.001048,100,-0.000400,-0.000840,  82.144
    46.6,-0.001062,-0.001057,100,-0.000708,-0.000853,  82.143
    46.8,-0.001070,-0.001061,100,-0.001178,-0.000887,  82.144
    47.0,-0.001069,-0.001061,100,-0.001806,-0.000875,  82.145
    47.2,-0.001080,-0.001066,100,-0.001812,-0.000875,  82.138
    47.4,-0.001087,-0.001070,100,-0.001593,-0.000909,  82.142
    47.6,-0.001088,-0.001074,100,-0.001144,-0.000909,  82.142
    47.8,-0.001091,-0.001079,100,-0.000977,-0.000875,  82.134
    48.0,-0.001097,-0.001083,100,-0.000836,-0.000862,  82.138
    48.2,-0.001106,-0.001090,100,-0.000732,-0.000896,  82.129
    48.4,-0.001104,-0.001095,100,-0.000628,-0.000918,  82.136
    48.6,-0.001111,-0.001100,100,-0.000539,-0.000905,  82.123
    48.8,-0.001119,-0.001103,100,-0.000473,-0.000927,  82.127
    49.0,-0.001120,-0.001109,100,-0.000451,-0.000914,  82.125
    49.2,-0.001125,-0.001110,100,-0.000463,-0.000902,  82.126
    49.4,-0.001129,-0.001116,100,-0.000508,-0.000936,  82.126
    49.6,-0.001124,-0.001121,100,-0.000499,-0.000914,  82.117
    49.8,-0.001131,-0.001123,100,-0.000482,-0.000914,  82.103
    50.0,-0.001137,-0.001121,100,-0.000451,-0.000914,  82.114
    50.2,-0.001141,-0.001125,100,-0.000428,-0.000914,  82.122
    50.4,-0.001147,-0.001128,100,-0.000405,-0.000914,  82.135
    50.6,-0.001156,-0.001131,100,-0.000372,-0.000936,  82.143
    50.8,-0.001154,-0.001134,100,-0.000357,-0.000936,  82.159
    51.0,-0.001160,-0.001141,100,-0.000343,-0.000945,  82.167
    51.2,-0.001161,-0.001149,100,-0.000331,-0.000967,  82.176
    51.4,-0.001165,-0.001153,100,-0.000343,-0.000954,  82.186
    51.6,-0.001171,-0.001158,100,-0.000372,-0.000945,  82.197
    51.8,-0.001172,-0.001163,100,-0.000402,-0.000979,  82.196
    52.0,-0.001173,-0.001166,100,-0.000449,-0.000967,  82.207
    52.2,-0.001177,-0.001167,100,-0.000672,-0.000967,  82.217
    52.4,-0.001179,-0.001171,100,-0.000971,-0.001001,  82.232
    52.6,-0.001187,-0.001171,100,-0.001351,-0.000967,  82.231
    52.8,-0.001194,-0.001177,100,-0.001368,-0.000979,  82.225
    53.0,-0.001198,-0.001181,100,-0.001246,-0.001014,  82.194
    53.2,-0.001199,-0.001181,100,-0.000986,-0.000989,  82.164
    53.4,-0.001206,-0.001188,100,-0.000873,-0.000989,  82.139
    53.6,-0.001212,-0.001189,100,-0.000773,-0.001010,  82.123
    53.8,-0.001215,-0.001189,100,-0.000673,-0.000998,  82.112
    54.0,-0.001222,-0.001195,100,-0.000588,-0.000985,  82.098
    54.2,-0.001229,-0.001202,100,-0.000531,-0.000994,  82.097
    54.4,-0.001226,-0.001202,100,-0.000475,-0.001028,  82.093
    54.6,-0.001228,-0.001203,100,-0.000437,-0.001016,  82.091
    54.8,-0.001223,-0.001206,100,-0.000419,-0.001038,  82.086
    55.0,-0.001207,-0.001197,100,-0.000411,-0.001059,  82.080
    55.2,-0.001202,-0.001188,100,-0.000536,-0.001003,  82.086
    55.4,-0.001200,-0.001180,100,-0.000730,-0.001003,  82.087
    55.6,-0.001184,-0.001163,100,-0.000992,-0.001025,  82.085
    55.8,-0.001181,-0.001158,100,-0.001001,-0.001025,  82.081
    56.0,-0.001177,-0.001157,100,-0.000907,-0.001012,  82.078
    56.2,-0.001178,-0.001157,100,-0.000717,-0.001034,  82.081
    56.4,-0.001179,-0.001159,100,-0.000623,-0.001009,  82.080
    56.6,-0.001183,-0.001158,100,-0.000530,-0.001031,  82.082
    56.8,-0.001184,-0.001160,100,-0.000430,-0.001031,  82.071
    57.0,-0.001183,-0.001165,100,-0.000404,-0.001018,  82.062
    57.2,-0.001192,-0.001176,100,-0.000422,-0.001040,  82.063
    57.4,-0.001195,-0.001183,100,-0.000471,-0.001027,  82.058
    57.6,-0.001209,-0.001188,100,-0.000472,-0.001027,  82.054
    57.8,-0.001218,-0.001197,100,-0.000467,-0.001049,  82.053
    58.0,-0.001231,-0.001197,100,-0.000451,-0.001036,  82.054
    58.2,-0.001244,-0.001214,100,-0.000419,-0.001027,  82.057
    58.4,-0.001258,-0.001240,100,-0.000378,-0.001049,  82.053
    58.6,-0.001276,-0.001268,100,-0.000322,-0.001036,  82.051
    58.8,-0.001299,-0.001281,100,-0.000285,-0.001024,  82.048
    59.0,-0.001320,-0.001296,100,-0.000258,-0.001058,  82.048
    59.2,-0.001331,-0.001309,100,-0.000233,-0.001058,  82.049
    59.4,-0.001331,-0.001316,100,-0.000252,-0.001058,  82.048
    59.6,-0.001342,-0.001320,100,-0.000299,-0.001071,  82.045
    59.8,-0.001349,-0.001325,100,-0.000362,-0.001139,  82.042
    60.0,-0.001350,-0.001334,100,-0.000376,-0.001139,  82.045
    60.2,-0.001354,-0.001339,100,-0.000366,-0.001117,  82.044
    60.4,-0.001355,-0.001341,100,-0.000350,-0.001117,  82.039
    60.6,-0.001364,-0.001349,100,-0.000312,-0.001117,  82.042
    60.8,-0.001370,-0.001353,100,-0.000330,-0.001117,  82.038
    61.0,-0.001371,-0.001356,100,-0.000359,-0.001139,  82.038
    61.2,-0.001372,-0.001349,100,-0.000394,-0.001173,  82.030
    61.4,-0.001363,-0.001336,100,-0.000393,-0.001161,  82.039
    61.6,-0.001342,-0.001318,100,-0.000370,-0.001183,  82.034
    61.8,-0.001311,-0.001290,100,-0.000334,-0.001217,  82.031
    62.0,-0.001295,-0.001284,100,-0.000378,-0.001148,  82.029
    62.2,-0.001286,-0.001280,100,-0.000454,-0.001136,  82.028
    62.4,-0.001268,-0.001274,100,-0.000568,-0.001157,  82.031
    62.6,-0.001259,-0.001268,100,-0.000551,-0.001145,  82.028
    62.8,-0.001247,-0.001261,100,-0.000477,-0.001132,  82.028
    63.0,-0.001239,-0.001253,100,-0.000364,-0.001107,  82.026
    63.2,-0.001238,-0.001253,100,-0.000342,-0.001094,  82.026
    63.4,-0.001240,-0.001260,100,-0.000351,-0.001069,  82.029
    63.6,-0.001242,-0.001268,100,-0.000384,-0.001091,  82.029
    63.8,-0.001253,-0.001270,100,-0.000343,-0.001103,  82.029
    64.0,-0.001270,-0.001269,100,-0.000294,-0.001125,  82.030
    64.2,-0.001289,-0.001259,100,-0.000217,-0.001125,  82.029
    64.4,-0.001299,-0.001265,100,-0.000194,-0.001125,  82.026
    64.6,-0.001318,-0.001273,100,-0.000190,-0.001134,  82.028
    64.8,-0.001317,-0.001279,100,-0.000190,-0.001134,  82.026
    65.0,-0.001323,-0.001285,100,-0.000190,-0.001122,  82.024
    65.2,-0.001329,-0.001294,100,-0.000187,-0.001143,  82.024
    65.4,-0.001328,-0.001301,100,-0.000184,-0.001131,  82.020
    65.6,-0.001319,-0.001306,100,-0.000170,-0.001131,  82.022
    65.8,-0.001330,-0.001314,100,-0.000152,-0.001165,  82.024
    66.0,-0.001340,-0.001323,100,-0.000127,-0.001143,  82.019
    66.2,-0.001358,-0.001332,100,-0.000113,-0.001156,  82.019
    66.4,-0.001367,-0.001334,100,-0.000109,-0.001190,  82.021
    66.6,-0.001370,-0.001344,100,-0.000110,-0.001178,  82.019
    66.8,-0.001365,-0.001352,100,-0.000115,-0.001165,  82.024
    67.0,-0.001376,-0.001355,100,-0.000117,-0.001200,  82.022
    67.2,-0.001382,-0.001358,100,-0.000137,-0.001187,  82.019
    67.4,-0.001394,-0.001367,100,-0.000156,-0.001187,  82.027
    67.6,-0.001405,-0.001373,100,-0.000167,-0.001174,  82.028
    67.8,-0.001411,-0.001376,100,-0.000184,-0.001174,  82.031
    68.0,-0.001414,-0.001381,100,-0.000189,-0.001209,  82.029
    68.2,-0.001423,-0.001390,100,-0.000185,-0.001187,  82.028
    68.4,-0.001424,-0.001398,100,-0.000172,-0.001221,  82.030
    68.6,-0.001433,-0.001404,100,-0.000197,-0.001209,  82.032
    68.8,-0.001439,-0.001409,100,-0.000233,-0.001209,  82.032
    69.0,-0.001446,-0.001413,100,-0.000293,-0.001230,  82.035
    69.2,-0.001449,-0.001419,100,-0.000382,-0.001252,  82.037
    69.4,-0.001456,-0.001429,100,-0.000494,-0.001205,  82.034
    69.6,-0.001459,-0.001429,100,-0.000632,-0.001180,  82.029
    69.8,-0.001460,-0.001432,100,-0.000796,-0.001214,  82.032
    70.0,-0.001464,-0.001438,100,-0.000773,-0.001214,  82.027
    70.2,-0.001467,-0.001437,100,-0.000693,-0.001236,  82.024
    70.4,-0.001471,-0.001438,100,-0.000558,-0.001223,  82.022
    70.6,-0.001480,-0.001447,100,-0.000491,-0.001270,  82.025
    70.8,-0.001483,-0.001458,100,-0.000434,-0.001305,  82.020
    71.0,-0.001488,-0.001464,100,-0.000383,-0.001292,  82.017
    71.2,-0.001497,-0.001469,100,-0.000267,-0.001292,  82.014
    71.4,-0.001500,-0.001471,100,-0.000122,-0.001327,  82.019
    71.6,-0.001496,-0.001466,100,0.000056,-0.001327,  82.017
    71.8,-0.001495,-0.001473,100,0.000054,-0.001292,  82.019
    72.0,-0.001496,-0.001477,100,-0.000030,-0.001314,  82.024
    72.2,-0.001500,-0.001479,100,-0.000191,-0.001314,  82.024
    72.4,-0.001499,-0.001488,100,-0.000250,-0.001301,  82.022
    72.6,-0.001500,-0.001493,100,-0.000296,-0.001323,  82.016
    72.8,-0.001505,-0.001496,100,-0.000332,-0.001323,  82.026
    73.0,-0.001512,-0.001500,100,-0.000346,-0.001310,  82.031
    73.2,-0.001511,-0.001501,100,-0.000342,-0.001332,  82.025
    73.4,-0.001514,-0.001497,100,-0.000314,-0.001332,  82.024
    73.6,-0.001517,-0.001496,100,-0.000699,-0.001320,  82.027
    73.8,-0.001524,-0.001499,100,-0.001276,-0.001341,  82.022
    74.0,-0.001524,-0.001500,100,-0.002049,-0.001341,  82.024
    74.2,-0.001529,-0.001503,100,-0.002184,-0.001341,  82.020
    74.4,-0.001530,-0.001508,100,-0.002096,-0.001363,  82.017
    74.6,-0.001531,-0.001517,100,-0.001791,-0.001350,  82.015
    74.8,-0.001532,-0.001522,100,-0.001744,-0.001329,  82.019
    75.0,-0.001537,-0.001530,100,-0.001718,-0.001329,  82.022
    75.2,-0.001540,-0.001529,100,-0.001710,-0.001316,  82.022
    75.4,-0.001547,-0.001531,100,-0.001553,-0.001329,  82.022
    75.6,-0.001553,-0.001538,100,-0.001330,-0.001316,  82.019
    75.8,-0.001556,-0.001542,100,-0.001042,-0.001338,  82.019
    76.0,-0.001562,-0.001545,100,-0.000909,-0.001325,  82.013
    76.2,-0.001563,-0.001550,100,-0.000820,-0.001313,  82.021
    76.4,-0.001566,-0.001551,100,-0.000780,-0.001347,  82.018
    76.6,-0.001572,-0.001556,100,-0.000689,-0.001347,  82.022
    76.8,-0.001578,-0.001564,100,-0.000599,-0.001334,  82.018
    77.0,-0.001579,-0.001563,100,-0.000507,-0.001356,  82.015
    77.2,-0.001583,-0.001568,100,-0.000618,-0.001356,  82.013
    77.4,-0.001589,-0.001574,100,-0.000828,-0.001356,  82.015
    77.6,-0.001592,-0.001576,100,-0.001138,-0.001378,  82.015
    77.8,-0.001590,-0.001579,100,-0.001164,-0.001378,  82.009
    78.0,-0.001591,-0.001583,100,-0.001098,-0.001378,  82.007
    78.2,-0.001592,-0.001583,100,-0.000945,-0.001400,  82.010
    78.4,-0.001596,-0.001588,100,-0.000868,-0.001387,  82.013
    78.6,-0.001597,-0.001595,100,-0.000773,-0.001387,  82.008
    78.8,-0.001600,-0.001599,100,-0.000678,-0.001409,  82.007
    79.0,-0.001601,-0.001601,100,-0.000569,-0.001396,  82.009
    79.2,-0.001610,-0.001608,100,-0.000525,-0.001387,  82.008
    79.4,-0.001618,-0.001612,100,-0.000490,-0.001421,  82.005
    79.6,-0.001626,-0.001614,100,-0.000482,-0.001396,  82.007
    79.8,-0.001635,-0.001618,100,-0.000448,-0.001396,  82.005
    80.0,-0.001636,-0.001619,100,-0.000405,-0.001418,  81.999
    80.2,-0.001632,-0.001621,100,-0.000363,-0.001418,  82.004
    80.4,-0.001640,-0.001626,100,-0.000373,-0.001418,  82.011
    80.6,-0.001641,-0.001632,100,-0.000403,-0.001440,  82.011
    80.8,-0.001639,-0.001633,100,-0.000462,-0.001440,  82.013
    81.0,-0.001640,-0.001637,100,-0.000469,-0.001440,  82.014
    81.2,-0.001641,-0.001642,100,-0.000465,-0.001461,  82.013
    81.4,-0.001650,-0.001648,100,-0.000448,-0.001449,  82.013
    81.6,-0.001653,-0.001655,100,-0.000595,-0.001436,  82.018
    81.8,-0.001657,-0.001655,100,-0.000827,-0.001458,  82.008
    82.0,-0.001660,-0.001651,100,-0.001137,-0.001492,  82.011
    82.2,-0.001664,-0.001654,100,-0.001133,-0.001458,  82.016
    82.4,-0.001663,-0.001658,100,-0.001006,-0.001445,  82.020
    82.6,-0.001664,-0.001663,100,-0.000771,-0.001467,  82.015
    82.8,-0.001665,-0.001664,100,-0.000691,-0.001480,  82.013
    83.0,-0.001674,-0.001669,100,-0.000643,-0.001480,  82.013
    83.2,-0.001668,-0.001668,100,-0.000607,-0.001455,  82.009
    83.4,-0.001676,-0.001669,100,-0.000580,-0.001455,  82.014
    83.6,-0.001683,-0.001673,100,-0.000581,-0.001442,  82.010
    83.8,-0.001679,-0.001668,100,-0.000594,-0.001464,  82.011
    84.0,-0.001672,-0.001672,100,-0.000702,-0.001464,  82.013
    84.2,-0.001673,-0.001673,100,-0.000881,-0.001485,  82.010
    84.4,-0.001674,-0.001674,100,-0.001114,-0.001485,  82.010
    84.6,-0.001678,-0.001678,100,-0.001106,-0.001485,  82.011
    84.8,-0.001684,-0.001681,100,-0.001006,-0.001507,  82.019
    85.0,-0.001683,-0.001680,100,-0.000818,-0.001507,  82.014
    85.2,-0.001680,-0.001685,100,-0.000738,-0.001495,  82.017
    85.4,-0.001686,-0.001691,100,-0.000675,-0.001516,  82.016
    85.6,-0.001689,-0.001691,100,-0.000610,-0.001516,  82.021
    85.8,-0.001692,-0.001698,100,-0.000568,-0.001482,  82.015
    86.0,-0.001695,-0.001703,100,-0.000549,-0.001504,  82.015
    86.2,-0.001696,-0.001708,100,-0.000533,-0.001491,  82.015
    86.4,-0.001709,-0.001716,100,-0.000500,-0.001526,  82.013
    86.6,-0.001713,-0.001715,100,-0.000472,-0.001491,  82.008
    86.8,-0.001721,-0.001716,100,-0.000435,-0.001513,  82.012
    87.0,-0.001725,-0.001720,100,-0.000437,-0.001513,  82.007
    87.2,-0.001731,-0.001727,100,-0.000450,-0.001500,  82.004
    87.4,-0.001737,-0.001730,100,-0.000485,-0.001522,  82.004
    87.6,-0.001735,-0.001735,100,-0.000528,-0.001535,  82.003
    87.8,-0.001743,-0.001741,100,-0.000514,-0.001535,  81.999
    88.0,-0.001741,-0.001743,100,-0.000482,-0.001557,  82.000
    88.2,-0.001749,-0.001749,100,-0.000435,-0.001557,  82.000
    88.4,-0.001752,-0.001748,100,-0.000409,-0.001544,  82.005
    88.6,-0.001753,-0.001752,100,-0.000382,-0.001566,  82.001
    88.8,-0.001749,-0.001750,100,-0.000362,-0.001578,  82.006
    89.0,-0.001750,-0.001757,100,-0.000386,-0.001544,  82.005
    89.2,-0.001755,-0.001760,100,-0.000424,-0.001531,  82.007
    89.4,-0.001759,-0.001765,100,-0.000489,-0.001531,  82.003
    89.6,-0.001762,-0.001774,100,-0.000490,-0.001531,  82.007
    89.8,-0.001763,-0.001774,100,-0.000471,-0.001506,  82.011
    90.0,-0.001768,-0.001773,100,-0.000433,-0.001528,  82.011
    90.2,-0.001772,-0.001778,100,-0.000434,-0.001562,  82.015
    90.4,-0.001775,-0.001787,100,-0.000440,-0.001550,  82.012
    90.6,-0.001780,-0.001785,100,-0.000457,-0.001571,  82.007
    90.8,-0.001787,-0.001787,100,-0.000458,-0.001584,  82.005
    91.0,-0.001790,-0.001793,100,-0.000446,-0.001606,  82.007
    91.2,-0.001794,-0.001792,100,-0.000437,-0.001640,  82.003
    91.4,-0.001795,-0.001792,100,-0.000418,-0.001628,  82.002
    91.6,-0.001796,-0.001801,100,-0.000395,-0.001649,  82.005
    91.8,-0.001807,-0.001804,100,-0.000367,-0.001662,  82.005
    92.0,-0.001804,-0.001805,100,-0.000354,-0.001628,  82.008
    92.2,-0.001805,-0.001809,100,-0.000358,-0.001649,  82.007
    92.4,-0.001803,-0.001810,100,-0.000361,-0.001649,  82.011
    92.6,-0.001799,-0.001814,100,-0.000542,-0.001602,  82.008
    92.8,-0.001800,-0.001821,100,-0.000828,-0.001624,  82.009
    93.0,-0.001803,-0.001821,100,-0.001202,-0.001624,  82.010
    93.2,-0.001809,-0.001824,100,-0.001207,-0.001612,  82.016
    93.4,-0.001817,-0.001824,100,-0.001074,-0.001646,  82.015
    93.6,-0.001821,-0.001825,100,-0.000809,-0.001612,  82.016
    93.8,-0.001822,-0.001828,100,-0.000737,-0.001612,  82.017
    94.0,-0.001831,-0.001830,100,-0.000691,-0.001633,  82.015
    94.2,-0.001834,-0.001834,100,-0.000675,-0.001621,  82.018
    94.4,-0.001839,-0.001839,100,-0.000628,-0.001608,  82.018
    94.6,-0.001840,-0.001839,100,-0.000594,-0.001608,  82.017
    94.8,-0.001836,-0.001844,100,-0.000548,-0.001643,  82.018
    95.0,-0.001834,-0.001847,100,-0.000530,-0.001608,  82.024
    95.2,-0.001835,-0.001844,100,-0.000530,-0.001633,  82.016
    95.4,-0.001838,-0.001842,100,-0.000543,-0.001621,  82.018
    95.6,-0.001833,-0.001846,100,-0.000709,-0.001608,  82.016
    95.8,-0.001840,-0.001849,100,-0.000961,-0.001630,  82.014
    96.0,-0.001843,-0.001856,100,-0.001293,-0.001630,  82.020
    96.2,-0.001849,-0.001862,100,-0.001350,-0.001617,  82.017
    96.4,-0.001855,-0.001863,100,-0.001313,-0.001630,  82.015
    96.6,-0.001854,-0.001862,100,-0.001185,-0.001652,  82.015
    96.8,-0.001855,-0.001862,100,-0.000961,-0.001639,  82.018
    97.0,-0.001856,-0.001863,100,-0.001054,-0.001626,  82.022
    97.2,-0.001852,-0.001862,100,-0.001215,-0.001648,  82.018
    97.4,-0.001857,-0.001860,100,-0.001444,-0.001695,  82.021
    97.6,-0.001858,-0.001864,100,-0.001369,-0.001661,  82.026
    97.8,-0.001859,-0.001869,100,-0.001182,-0.001648,  82.029
    98.0,-0.001863,-0.001872,100,-0.000875,-0.001683,  82.025
    98.2,-0.001869,-0.001882,100,-0.000785,-0.001670,  82.027
    98.4,-0.001867,-0.001884,100,-0.000754,-0.001657,  82.024
    98.6,-0.001869,-0.001883,100,-0.000779,-0.001679,  82.028
    98.8,-0.001872,-0.001890,100,-0.000740,-0.001679,  82.032
    99.0,-0.001876,-0.001895,100,-0.000689,-0.001701,  82.031
    99.2,-0.001881,-0.001897,100,-0.000637,-0.001688,  82.030
    99.4,-0.001888,-0.001899,100,-0.000594,-0.001701,  82.029
    99.6,-0.001889,-0.001903,100,-0.000542,-0.001723,  82.031
    99.8,-0.001887,-0.001901,100,-0.000500,-0.001723,  82.031
   100.0,-0.001888,-0.001902,100,-0.000481,-0.001710,  82.032
   100.2,-0.001896,-0.001905,100,-0.000466,-0.001732,  82.030
   100.4,-0.001892,-0.001906,100,-0.000470,-0.001732,  82.037
   100.6,-0.001892,-0.001907,100,-0.000461,-0.001719,  82.034
   100.8,-0.001893,-0.001907,100,-0.000448,-0.001741,  82.035
   101.0,-0.001894,-0.001906,100,-0.000435,-0.001707,  82.035
   101.2,-0.001898,-0.001910,100,-0.000643,-0.001707,  82.034
   101.4,-0.001895,-0.001912,100,-0.000955,-0.001729,  82.042
   101.6,-0.001898,-0.001907,100,-0.001382,-0.001694,  82.045
   101.8,-0.001899,-0.001909,100,-0.001421,-0.001707,  82.046
   102.0,-0.001904,-0.001911,100,-0.001305,-0.001716,  82.049
   102.2,-0.001899,-0.001910,100,-0.001057,-0.001716,  82.053
   102.4,-0.001895,-0.001909,100,-0.000972,-0.001716,  82.050
   102.6,-0.001893,-0.001908,100,-0.000888,-0.001738,  82.051
   102.8,-0.001887,-0.001904,100,-0.000823,-0.001725,  82.054
   103.0,-0.001888,-0.001906,100,-0.000738,-0.001725,  82.056
   103.2,-0.001892,-0.001899,100,-0.000653,-0.001725,  82.062
   103.4,-0.001883,-0.001893,100,-0.000568,-0.001725,  82.064
   103.6,-0.001882,-0.001893,100,-0.000546,-0.001713,  82.061
   103.8,-0.001878,-0.001890,100,-0.000550,-0.001725,  82.065
   104.0,-0.001878,-0.001882,100,-0.000593,-0.001747,  82.069
   104.2,-0.001867,-0.001876,100,-0.000576,-0.001734,  82.067
   104.4,-0.001863,-0.001875,100,-0.000550,-0.001722,  82.066
   104.6,-0.001862,-0.001869,100,-0.000508,-0.001744,  82.068
   104.8,-0.001863,-0.001869,100,-0.000482,-0.001744,  82.073
   105.0,-0.001857,-0.001864,100,-0.000465,-0.001709,  82.072
   105.2,-0.001851,-0.001856,100,-0.000450,-0.001684,  82.077
   105.4,-0.001849,-0.001852,100,-0.000439,-0.001718,  82.076
   105.6,-0.001844,-0.001848,100,-0.000418,-0.001706,  82.077
   105.8,-0.001838,-0.001843,100,-0.000401,-0.001693,  82.081
   106.0,-0.001832,-0.001841,100,-0.000384,-0.001727,  82.083
   106.2,-0.001830,-0.001837,100,-0.000372,-0.001706,  82.082
   106.4,-0.001826,-0.001827,100,-0.000369,-0.001706,  82.085
   106.6,-0.001813,-0.001824,100,-0.000367,-0.001749,  82.087
   106.8,-0.001804,-0.001820,100,-0.000364,-0.001737,  82.082
   107.0,-0.001794,-0.001806,100,-0.000358,-0.001724,  82.087
   107.2,-0.001775,-0.001796,100,-0.000348,-0.001746,  82.084
   107.4,-0.001769,-0.001788,100,-0.000312,-0.001699,  82.089
   107.6,-0.001764,-0.001779,100,-0.000266,-0.001721,  82.092
   107.8,-0.001760,-0.001773,100,-0.000207,-0.001721,  82.088
   108.0,-0.001755,-0.001763,100,-0.000200,-0.001708,  82.090
   108.2,-0.001743,-0.001753,100,-0.000205,-0.001730,  82.094
   108.4,-0.001736,-0.001744,100,-0.000238,-0.001683,  82.096
   108.6,-0.001733,-0.001739,100,-0.000215,-0.001683,  82.092
   108.8,-0.001727,-0.001732,100,-0.000166,-0.001692,  82.099
   109.0,-0.001718,-0.001728,100,-0.000101,-0.001667,  82.097
   109.2,-0.001713,-0.001719,100,-0.000110,-0.001667,  82.097
   109.4,-0.001705,-0.001706,100,-0.000153,-0.001688,  82.099
   109.6,-0.001701,-0.001694,100,-0.000229,-0.001676,  82.100
   109.8,-0.001688,-0.001682,100,-0.000228,-0.001676,  82.097
   110.0,-0.001682,-0.001674,100,-0.000204,-0.001685,  82.100
   110.2,-0.001681,-0.001665,100,-0.000164,-0.001650,  82.102
   110.4,-0.001674,-0.001665,100,-0.000122,-0.001650,  82.102
   110.6,-0.001668,-0.001661,100,-0.000061,-0.001660,  82.109
   110.8,-0.001670,-0.001656,100,0.000009,-0.001647,  82.108
   111.0,-0.001658,-0.001658,100,0.000052,-0.001634,  82.106
   111.2,-0.001659,-0.001665,100,0.000097,-0.001656,  82.108
   111.4,-0.001667,-0.001664,100,0.000132,-0.001656,  82.111
   111.6,-0.001669,-0.001667,100,-0.000157,-0.001622,  82.111
   111.8,-0.001672,-0.001670,100,-0.000610,-0.001643,  82.113
   112.0,-0.001676,-0.001673,100,-0.001222,-0.001643,  82.111
   112.2,-0.001679,-0.001679,100,-0.001246,-0.001622,  82.111
   112.4,-0.001687,-0.001691,100,-0.001057,-0.001665,  82.108
   112.6,-0.001699,-0.001704,100,-0.000658,-0.001653,  82.108
   112.8,-0.001714,-0.001716,100,-0.000500,-0.001640,  82.106
   113.0,-0.001724,-0.001724,100,-0.000367,-0.001627,  82.110
   113.2,-0.001736,-0.001730,100,-0.000252,-0.001662,  82.106
   113.4,-0.001737,-0.001742,100,-0.000181,-0.001637,  82.104
   113.6,-0.001747,-0.001747,100,-0.000150,-0.001649,  82.108
   113.8,-0.001757,-0.001757,100,-0.000152,-0.001684,  82.103
   114.0,-0.001766,-0.001770,100,-0.000130,-0.001684,  82.104
   114.2,-0.001779,-0.001786,100,-0.000104,-0.001684,  82.103
   114.4,-0.001789,-0.001795,100,-0.000096,-0.001684,  82.104
   114.6,-0.001798,-0.001806,100,-0.000085,-0.001718,  82.099
   114.8,-0.001818,-0.001821,100,-0.000068,-0.001718,  82.096
   115.0,-0.001832,-0.001833,100,-0.000054,-0.001718,  82.093
   115.2,-0.001844,-0.001846,100,-0.000032,-0.001753,  82.096
   115.4,-0.001861,-0.001859,100,-0.000013,-0.001718,  82.097
   115.6,-0.001874,-0.001866,100,0.000010,-0.001718,  82.095
   115.8,-0.001876,-0.001875,100,0.000032,-0.001753,  82.094
   116.0,-0.001884,-0.001888,100,-0.000099,-0.001718,  82.090
   116.2,-0.001886,-0.001896,100,-0.000312,-0.001753,  82.093
   116.4,-0.001888,-0.001905,100,-0.000594,-0.001753,  82.092
   116.6,-0.001894,-0.001917,100,-0.000609,-0.001753,  82.088
   116.8,-0.001904,-0.001922,100,-0.000533,-0.001787,  82.088
   117.0,-0.001911,-0.001932,100,-0.000364,-0.001753,  82.087
   117.2,-0.001926,-0.001940,100,-0.000297,-0.001753,  82.087
   117.4,-0.001928,-0.001947,100,-0.000237,-0.001787,  82.085
   117.6,-0.001935,-0.001953,100,-0.000186,-0.001787,  82.087
   117.8,-0.001949,-0.001958,100,-0.000165,-0.001787,  82.087
   118.0,-0.001956,-0.001966,100,-0.000167,-0.001834,  82.081
   118.2,-0.001964,-0.001975,100,-0.000194,-0.001847,  82.086
   118.4,-0.001970,-0.001983,100,-0.000212,-0.001825,  82.087
   118.6,-0.001975,-0.001988,100,-0.000244,-0.001860,  82.091
   118.8,-0.001975,-0.001992,100,-0.000285,-0.001847,  82.089
   119.0,-0.001981,-0.001996,100,-0.000326,-0.001822,  82.093
   119.2,-0.001989,-0.001998,100,-0.000368,-0.001844,  82.091
   119.4,-0.001989,-0.002004,100,-0.000416,-0.001831,  82.095
   119.6,-0.001989,-0.002008,100,-0.000392,-0.001844,  82.090
   119.8,-0.001994,-0.002014,100,-0.000335,-0.001865,  82.092
   120.0,-0.001992,-0.002019,100,-0.000240,-0.001853,  82.097
   120.2,-0.001987,-0.002029,100,-0.000217,-0.001853,  82.095
   120.4,-0.001991,-0.002029,100,-0.000215,-0.001840,  82.097
   120.6,-0.001996,-0.002028,100,-0.000232,-0.001840,  82.102
   120.8,-0.001998,-0.002035,100,-0.000234,-0.001853,  82.103
   121.0,-0.002002,-0.002039,100,-0.000242,-0.001875,  82.099
   121.2,-0.002005,-0.002040,100,-0.000255,-0.001875,  82.102
   121.4,-0.002008,-0.002042,100,-0.000232,-0.001887,  82.104
   121.6,-0.002009,-0.002045,100,-0.000196,-0.001909,  82.113
   121.8,-0.002010,-0.002043,100,-0.000151,-0.001944,  82.107
   122.0,-0.002006,-0.002046,100,-0.000275,-0.001909,  82.110
   122.2,-0.002010,-0.002047,100,-0.000477,-0.001909,  82.112
   122.4,-0.002003,-0.002041,100,-0.000757,-0.001931,  82.115
   122.6,-0.001999,-0.002042,100,-0.000751,-0.001918,  82.116
   122.8,-0.002000,-0.002046,100,-0.000647,-0.001918,  82.121
   123.0,-0.002001,-0.002047,100,-0.000430,-0.001940,  82.126
   123.2,-0.001999,-0.002044,100,-0.000346,-0.001928,  82.120
   123.4,-0.001997,-0.002045,100,-0.000277,-0.001928,  82.129
   123.6,-0.001999,-0.002048,100,-0.000223,-0.001915,  82.126
   123.8,-0.001995,-0.002055,100,-0.000182,-0.001924,  82.123
   124.0,-0.001992,-0.002051,100,-0.000273,-0.001902,  82.129
   124.2,-0.001993,-0.002048,100,-0.000419,-0.001902,  82.128
   124.4,-0.001994,-0.002048,100,-0.000628,-0.001924,  82.130
   124.6,-0.001990,-0.002046,100,-0.000604,-0.001902,  82.129
   124.8,-0.001991,-0.002045,100,-0.000488,-0.001890,  82.126
   125.0,-0.001992,-0.002041,100,-0.000290,-0.001924,  82.134
   125.2,-0.001994,-0.002041,100,-0.000158,-0.001890,  82.132
   125.4,-0.001985,-0.002039,100,-0.000017,-0.001912,  82.138
   125.6,-0.001976,-0.002039,100,0.000131,-0.001912,  82.137
   125.8,-0.001971,-0.002040,100,-0.000077,-0.001899,  82.140
   126.0,-0.001959,-0.002038,100,-0.000456,-0.001921,  82.142
   126.2,-0.001956,-0.002032,100,-0.001012,-0.001899,  82.148
   126.4,-0.001951,-0.002032,100,-0.000964,-0.001912,  82.140
   126.6,-0.001938,-0.002031,100,-0.000690,-0.001933,  82.142
   126.8,-0.001930,-0.002027,100,-0.000208,-0.001921,  82.138
   127.0,-0.001919,-0.002023,100,-0.000014,-0.001943,  82.139
   127.2,-0.001917,-0.002013,100,0.000154,-0.001977,  82.145
   127.4,-0.001903,-0.002003,100,0.000282,-0.001977,  82.144
   127.6,-0.001895,-0.001999,100,0.000451,-0.001977,  82.148
   127.8,-0.001892,-0.001992,100,0.000623,-0.001999,  82.144
   128.0,-0.001878,-0.001981,100,0.000790,-0.001999,  82.146
   128.2,-0.001869,-0.001972,100,0.000943,-0.001965,  82.147
   128.4,-0.001867,-0.001969,100,0.001089,-0.001986,  82.144
   128.6,-0.001851,-0.001962,100,0.001217,-0.001961,  82.151
   128.8,-0.001833,-0.001954,100,0.001364,-0.001961,  82.149
   129.0,-0.001826,-0.001948,100,0.001515,-0.001961,  82.151
   129.2,-0.001814,-0.001946,100,0.001661,-0.001961,  82.150
   129.4,-0.001800,-0.001943,100,0.001778,-0.001974,  82.151
   129.6,-0.001785,-0.001932,100,0.001892,-0.001996,  82.153
   129.8,-0.001773,-0.001923,100,0.001983,-0.001983,  82.155
   130.0,-0.001747,-0.001916,100,0.002133,-0.001958,  82.149
   130.2,-0.001730,-0.001908,100,0.002307,-0.001980,  82.159
   130.4,-0.001712,-0.001902,100,0.002497,-0.002014,  82.155
   130.6,-0.001697,-0.001895,100,0.002646,-0.001967,  82.155
   130.8,-0.001680,-0.001886,100,0.002781,-0.001967,  82.153
   131.0,-0.001663,-0.001871,100,0.002895,-0.002001,  82.155
   131.2,-0.001644,-0.001862,100,0.003048,-0.001967,  82.155
   131.4,-0.001630,-0.001854,100,0.003216,-0.001967,  82.154
   131.6,-0.001605,-0.001838,100,0.003395,-0.001976,  82.155
   131.8,-0.001578,-0.001825,100,0.003614,-0.001989,  82.159
   132.0,-0.001555,-0.001815,100,0.003860,-0.001976,  82.154
   132.2,-0.001535,-0.001800,100,0.004128,-0.001963,  82.155
   132.4,-0.001510,-0.001789,100,0.004319,-0.001963,  82.154
   132.6,-0.001487,-0.001777,100,0.004492,-0.001998,  82.161
   132.8,-0.001465,-0.001760,100,0.004638,-0.001985,  82.153
   133.0,-0.001444,-0.001745,100,0.004761,-0.002020,  82.156
   133.2,-0.001418,-0.001737,100,0.005024,-0.001973,  82.151
   133.4,-0.001386,-0.001720,100,0.005321,-0.001995,  82.158
   133.6,-0.001354,-0.001713,100,0.005661,-0.001995,  82.150
   133.8,-0.001326,-0.001703,100,0.005887,-0.001982,  82.153
   134.0,-0.001290,-0.001684,100,0.006072,-0.002004,  82.156
   134.2,-0.001258,-0.001665,100,0.006221,-0.002004,  82.157
   134.4,-0.001233,-0.001644,100,0.006522,-0.002004,  82.160
   134.6,-0.001195,-0.001622,100,0.006883,-0.002013,  82.161
   134.8,-0.001156,-0.001599,100,0.007301,-0.002013,  82.158
   135.0,-0.001121,-0.001576,100,0.007642,-0.001978,  82.166
   135.2,-0.001086,-0.001555,100,0.007980,-0.002000,  82.160
   135.4,-0.001043,-0.001532,100,0.008307,-0.001988,  82.168
   135.6,-0.001004,-0.001512,100,0.008646,-0.001953,  82.162
   135.8,-0.000958,-0.001490,100,0.009002,-0.001975,  82.166
   136.0,-0.000919,-0.001464,100,0.009354,-0.001975,  82.167
   136.2,-0.000880,-0.001442,100,0.009765,-0.001962,  82.168
   136.4,-0.000852,-0.001416,100,0.010207,-0.001984,  82.165
   136.6,-0.000820,-0.001394,100,0.010683,-0.001984,  82.167
   136.8,-0.000796,-0.001375,100,0.011113,-0.001972,  82.163
   137.0,-0.000760,-0.001346,100,0.011541,-0.001993,  82.167
   137.2,-0.000725,-0.001320,100,0.011958,-0.001993,  82.167
   137.4,-0.000686,-0.001296,100,0.012418,-0.001981,  82.170
   137.6,-0.000646,-0.001270,100,0.012894,-0.002015,  82.168
   137.8,-0.000604,-0.001245,100,0.013389,-0.002015,  82.168
   138.0,-0.000560,-0.001219,100,0.013870,-0.002015,  82.162
   138.2,-0.000521,-0.001193,100,0.014356,-0.002037,  82.166
   138.4,-0.000471,-0.001169,100,0.014839,-0.002037,  82.166
   138.6,-0.000419,-0.001142,100,0.015006,-0.002003,  82.172
   138.8,-0.000369,-0.001119,100,0.015019,-0.001990,  82.163
   139.0,-0.000319,-0.001088,100,0.014870,-0.001977,  82.165
   139.2,-0.000265,-0.001057,100,0.015333,-0.001977,  82.161
   139.4,-0.000212,-0.001023,100,0.016020,-0.001965,  82.161
   139.6,-0.000161,-0.000990,100,0.016935,-0.001999,  82.166
   139.8,-0.000109,-0.000957,100,0.017613,-0.001987,  82.164
   140.0,-0.000056,-0.000923,100,0.018277,-0.001987,  82.168
   140.2,0.000002,-0.000889,100,0.018933,-0.001974,  82.165
   140.4,0.000058,-0.000858,100,0.019618,-0.001999,  82.165
   140.6,0.000111,-0.000825,100,0.020308,-0.001999,  82.164
   140.8,0.000157,-0.000795,100,0.021013,-0.002021,  82.164
   141.0,0.000214,-0.000765,100,0.021607,-0.002008,  82.165
   141.2,0.000270,-0.000732,100,0.022152,-0.002008,  82.171
   141.4,0.000321,-0.000702,100,0.022643,-0.001996,  82.170
   141.6,0.000381,-0.000673,100,0.023085,-0.002030,  82.166
   141.8,0.000437,-0.000641,100,0.023713,-0.002030,  82.167
   142.0,0.000495,-0.000599,100,0.024377,-0.002040,  82.163
   142.2,0.000548,-0.000571,100,0.025090,-0.002040,  82.165
   142.4,0.000606,-0.000536,100,0.025703,-0.002027,  82.165
   142.6,0.000674,-0.000511,100,0.026298,-0.002049,  82.164
   142.8,0.000735,-0.000482,100,0.026862,-0.002036,  82.169
   143.0,0.000800,-0.000446,100,0.027524,-0.002049,  82.165
   143.2,0.000870,-0.000410,100,0.028224,-0.002071,  82.164
   143.4,0.000940,-0.000372,100,0.028962,-0.002058,  82.163
   143.6,0.001010,-0.000334,100,0.029298,-0.002045,  82.167
   143.8,0.001074,-0.000295,100,0.029449,-0.002067,  82.166
   144.0,0.001146,-0.000252,100,0.029420,-0.002033,  82.169
   144.2,0.001213,-0.000209,100,0.030103,-0.002020,  82.169
   144.4,0.001280,-0.000173,100,0.031049,-0.002042,  82.168
   144.6,0.001353,-0.000128,100,0.032274,-0.002020,  82.169
   144.8,0.001418,-0.000087,100,0.033171,-0.002020,  82.165
   145.0,0.001481,-0.000048,100,0.034041,-0.002029,  82.169
   145.2,0.001546,-0.000009,100,0.034888,-0.002029,  82.166
   145.4,0.001611,0.000027,100,0.035773,-0.002017,  82.168
   145.6,0.001676,0.000071,100,0.036670,-0.002039,  82.166
   145.8,0.001746,0.000109,100,0.037579,-0.002026,  82.174
   146.0,0.001805,0.000148,100,0.038424,-0.002039,  82.166
   146.2,0.001857,0.000189,100,0.039247,-0.002060,  82.169
   146.4,0.001904,0.000234,100,0.040046,-0.002048,  82.166
   146.6,0.001948,0.000276,100,0.040811,-0.002035,  82.168
   146.8,0.002015,0.000321,100,0.041547,-0.002057,  82.162
   147.0,0.002085,0.000363,100,0.042248,-0.002079,  82.164
   147.2,0.002161,0.000406,100,0.043032,-0.002032,  82.165
   147.4,0.002237,0.000451,100,0.043844,-0.002019,  82.166
   147.6,0.002314,0.000503,100,0.044668,-0.002054,  82.163
   147.8,0.002396,0.000551,100,0.045473,-0.002032,  82.162
   148.0,0.002469,0.000594,100,0.046275,-0.002006,  82.163
   148.2,0.002548,0.000643,100,0.047078,-0.002063,  82.161
   148.4,0.002630,0.000691,100,0.047937,-0.002050,  82.159
   148.6,0.002706,0.000738,100,0.048819,-0.002072,  82.157
   148.8,0.002773,0.000786,100,0.049728,-0.002059,  82.161
   149.0,0.002851,0.000833,100,0.050607,-0.002094,  82.160
   149.2,0.002929,0.000877,100,0.051477,-0.002059,  82.162
   149.4,0.002999,0.000922,100,0.052353,-0.002047,  82.160
   149.6,0.003075,0.000965,100,0.053125,-0.002047,  82.159
   149.8,0.003143,0.001006,100,0.053852,-0.002047,  82.160
   150.0,0.003212,0.001045,100,0.054530,-0.002069,  82.153
   150.2,0.003280,0.001088,100,0.055160,-0.002034,  82.156
   150.4,0.003347,0.001130,100,0.055923,-0.002047,  82.146
   150.6,0.003418,0.001169,100,0.056716,-0.002069,  82.156
   150.8,0.003483,0.001206,100,0.057531,-0.002056,  82.154
   151.0,0.003556,0.001241,100,0.058315,-0.002043,  82.144
   151.2,0.003628,0.001274,100,0.059098,-0.002078,  82.148
   151.4,0.003702,0.001307,100,0.059874,-0.002078,  82.150
   151.6,0.003773,0.001350,100,0.060455,-0.002043,  82.146
   151.8,0.003850,0.001401,100,0.060926,-0.002065,  82.150
   152.0,0.003935,0.001453,100,0.061293,-0.002087,  82.149
   152.2,0.004014,0.001501,100,0.061832,-0.002074,  82.151
   152.4,0.004092,0.001549,100,0.062403,-0.002084,  82.149
   152.6,0.004169,0.001598,100,0.063003,-0.002084,  82.148
   152.8,0.004244,0.001646,100,0.063959,-0.002049,  82.151
   153.0,0.004319,0.001693,100,0.065102,-0.002071,  82.151
   153.2,0.004387,0.001737,100,0.066447,-0.002058,  82.149
   153.4,0.004455,0.001782,100,0.067494,-0.002046,  82.147
   153.6,0.004520,0.001820,100,0.068486,-0.002055,  82.146
   153.8,0.004587,0.001862,100,0.069424,-0.002055,  82.147
   154.0,0.004649,0.001902,100,0.070091,-0.002055,  82.140
   154.2,0.004693,0.001941,100,0.070590,-0.002077,  82.140
   154.4,0.004743,0.001985,100,0.070923,-0.002077,  82.145
   154.6,0.004786,0.002025,100,0.071758,-0.002055,  82.134
   154.8,0.004851,0.002069,100,0.072765,-0.002055,  82.140
   155.0,0.004912,0.002107,100,0.073941,-0.002077,  82.139
   155.2,0.004977,0.002148,100,0.074626,-0.002064,  82.137
   155.4,0.005043,0.002189,100,0.075150,-0.002051,  82.135
   155.6,0.005114,0.002227,100,0.075512,-0.002073,  82.140
   155.8,0.005185,0.002271,100,0.076025,-0.002061,  82.135
   156.0,0.005255,0.002319,100,0.076545,-0.002048,  82.135
   156.2,0.005333,0.002371,100,0.077056,-0.002070,  82.137
   156.4,0.005403,0.002417,100,0.077616,-0.002070,  82.139
   156.6,0.005471,0.002460,100,0.078200,-0.002057,  82.136
   156.8,0.005539,0.002505,100,0.078803,-0.002092,  82.136
   157.0,0.005610,0.002549,100,0.079784,-0.002057,  82.137
   157.2,0.005676,0.002591,100,0.080973,-0.002057,  82.138
   157.4,0.005731,0.002631,100,0.082361,-0.002079,  82.137
   157.6,0.005801,0.002665,100,0.083454,-0.002045,  82.140
   157.8,0.005862,0.002706,100,0.084506,-0.002079,  82.138
   158.0,0.005916,0.002737,100,0.085500,-0.002101,  82.139
   158.2,0.005974,0.002770,100,0.086326,-0.002088,  82.138
   158.4,0.006030,0.002803,100,0.087038,-0.002063,  82.139
   158.6,0.006085,0.002841,100,0.087646,-0.002085,  82.138
   158.8,0.006139,0.002876,100,0.088275,-0.002085,  82.140
   159.0,0.006193,0.002913,100,0.088860,-0.002050,  82.138
   159.2,0.006247,0.002951,100,0.089406,-0.002072,  82.136
   159.4,0.006305,0.002985,100,0.089908,-0.002060,  82.137
   159.6,0.006359,0.003011,100,0.090562,-0.002047,  82.136
   159.8,0.006413,0.003037,100,0.091257,-0.002082,  82.134
   160.0,0.006476,0.003057,100,0.091981,-0.002047,  82.137
   160.2,0.006536,0.003090,100,0.092574,-0.002047,  82.133
   160.4,0.006596,0.003126,100,0.093123,-0.002069,  82.135
   160.6,0.006654,0.003167,100,0.093620,-0.002056,  82.134
   160.8,0.006709,0.003206,100,0.093944,-0.002056,  82.139
   161.0,0.006762,0.003241,100,0.094164,-0.002078,  82.138
   161.2,0.006820,0.003280,100,0.094265,-0.002053,  82.143
   161.4,0.006872,0.003317,100,0.094949,-0.002065,  82.142
   161.6,0.006917,0.003352,100,0.095874,-0.002087,  82.137
   161.8,0.006961,0.003386,100,0.097025,-0.002097,  82.132
   162.0,0.007011,0.003418,100,0.097840,-0.002084,  82.134
   162.2,0.007059,0.003442,100,0.098613,-0.002106,  82.135
   162.4,0.007100,0.003468,100,0.099325,-0.002141,  82.134
   162.6,0.007142,0.003495,100,0.100058,-0.002071,  82.138
   162.8,0.007181,0.003516,100,0.100779,-0.002059,  82.132
   163.0,0.007217,0.003547,100,0.101471,-0.002081,  82.130
   163.2,0.007250,0.003573,100,0.101613,-0.002081,  82.130
   163.4,0.007282,0.003599,100,0.101453,-0.002068,  82.132
   163.6,0.007311,0.003624,100,0.101003,-0.002055,  82.123
   163.8,0.007344,0.003653,100,0.101434,-0.002081,  82.119
   164.0,0.007382,0.003682,100,0.102166,-0.002081,  82.121
   164.2,0.007426,0.003711,100,0.103195,-0.002090,  82.125
   164.4,0.007469,0.003739,100,0.103798,-0.002090,  82.120
   164.6,0.007512,0.003770,100,0.104335,-0.002112,  82.120
   164.8,0.007556,0.003797,100,0.104805,-0.002099,  82.120
   165.0,0.007598,0.003821,100,0.105331,-0.002086,  82.117
   165.2,0.007639,0.003847,100,0.105839,-0.002096,  82.116
   165.4,0.007673,0.003877,100,0.106350,-0.002083,  82.122
   165.6,0.007706,0.003898,100,0.106874,-0.002070,  82.116
   165.8,0.007732,0.003918,100,0.107391,-0.002092,  82.118
   166.0,0.007765,0.003940,100,0.107911,-0.002067,  82.120
   166.2,0.007795,0.003959,100,0.108388,-0.002079,  82.121
   166.4,0.007819,0.003980,100,0.108855,-0.002067,  82.123
   166.6,0.007849,0.003998,100,0.109296,-0.002067,  82.122
   166.8,0.007874,0.004015,100,0.109767,-0.002054,  82.121
   167.0,0.007897,0.004030,100,0.110243,-0.002054,  82.122
   167.2,0.007916,0.004046,100,0.110722,-0.002089,  82.120
   167.4,0.007940,0.004062,100,0.111050,-0.002089,  82.119
   167.6,0.007960,0.004081,100,0.111305,-0.002089,  82.119
   167.8,0.007987,0.004099,100,0.111484,-0.002111,  82.119
   168.0,0.008022,0.004111,100,0.111588,-0.002111,  82.113
   168.2,0.008044,0.004127,100,0.111782,-0.002089,  82.106
   168.4,0.008065,0.004146,100,0.111982,-0.002111,  82.108
   168.6,0.008091,0.004159,100,0.112164,-0.002111,  82.107
   168.8,0.008118,0.004172,100,0.112374,-0.002076,  82.103
   169.0,0.008135,0.004184,100,0.112584,-0.002098,  82.102
   169.2,0.008154,0.004196,100,0.112799,-0.002098,  82.099
   169.4,0.008171,0.004213,100,0.113067,-0.002085,  82.098
   169.6,0.008196,0.004226,100,0.113349,-0.002107,  82.098
   169.8,0.008225,0.004240,100,0.113661,-0.002095,  82.094
   170.0,0.008240,0.004251,100,0.113577,-0.002082,  82.087
   170.2,0.008249,0.004262,100,0.113306,-0.002091,  82.089
   170.4,0.008252,0.004272,100,0.112843,-0.002113,  82.094
   170.6,0.008253,0.004285,100,0.113090,-0.002078,  82.086
   170.8,0.008262,0.004290,100,0.113594,-0.002066,  82.079
   171.0,0.008269,0.004293,100,0.114356,-0.002088,  82.078
   171.2,0.008273,0.004303,100,0.114756,-0.002088,  82.080
   171.4,0.008272,0.004309,100,0.115099,-0.002075,  82.078
   171.6,0.008276,0.004307,100,0.115387,-0.002075,  82.075
   171.8,0.008288,0.004310,100,0.115596,-0.002075,  82.071
   172.0,0.008289,0.004314,100,0.115748,-0.002062,  82.065
   172.2,0.008299,0.004319,100,0.115834,-0.002097,  82.068
   172.4,0.008308,0.004321,100,0.115918,-0.002097,  82.060
   172.6,0.008309,0.004324,100,0.115961,-0.002119,  82.063
   172.8,0.008313,0.004331,100,0.115967,-0.002093,  82.063
   173.0,0.008318,0.004340,100,0.116027,-0.002093,  82.059
   173.2,0.008319,0.004344,100,0.116074,-0.002128,  82.058
   173.4,0.008326,0.004348,100,0.116127,-0.002081,  82.050
   173.6,0.008333,0.004356,100,0.115978,-0.002093,  82.049
   173.8,0.008334,0.004362,100,0.115731,-0.002128,  82.051
   174.0,0.008339,0.004364,100,0.115368,-0.002115,  82.052
   174.2,0.008343,0.004357,100,0.115462,-0.002128,  82.049
   174.4,0.008332,0.004360,100,0.115732,-0.002150,  82.052
   174.6,0.008320,0.004355,100,0.116172,-0.002150,  82.045
   174.8,0.008311,0.004347,100,0.116341,-0.002150,  82.049
   175.0,0.008300,0.004344,100,0.116464,-0.002172,  82.045
   175.2,0.008280,0.004343,100,0.116543,-0.002159,  82.044
   175.4,0.008279,0.004335,100,0.116618,-0.002147,  82.044
   175.6,0.008264,0.004330,100,0.116668,-0.002147,  82.048
   175.8,0.008252,0.004325,100,0.116699,-0.002147,  82.047
   176.0,0.008241,0.004316,100,0.116624,-0.002112,  82.047
   176.2,0.008226,0.004314,100,0.116487,-0.002125,  82.035
   176.4,0.008219,0.004306,100,0.116282,-0.002134,  82.038
   176.6,0.008206,0.004301,100,0.116178,-0.002143,  82.033
   176.8,0.008199,0.004295,100,0.116091,-0.002131,  82.033
   177.0,0.008194,0.004292,100,0.116020,-0.002118,  82.032
   177.2,0.008189,0.004286,100,0.115970,-0.002118,  82.026
   177.4,0.008171,0.004275,100,0.115815,-0.002131,  82.031
   177.6,0.008160,0.004269,100,0.115634,-0.002153,  82.026
   177.8,0.008146,0.004263,100,0.115427,-0.002140,  82.024
   178.0,0.008131,0.004256,100,0.115325,-0.002127,  82.024
   178.2,0.008114,0.004253,100,0.115256,-0.002149,  82.023
   178.4,0.008102,0.004250,100,0.115228,-0.002171,  82.023
   178.6,0.008081,0.004240,100,0.115146,-0.002136,  82.020
   178.8,0.008062,0.004233,100,0.115049,-0.002111,  82.017
   179.0,0.008029,0.004218,100,0.114935,-0.002133,  82.014
   179.2,0.008003,0.004203,100,0.114793,-0.002133,  82.016
   179.4,0.007984,0.004191,100,0.114641,-0.002120,  82.014
   179.6,0.007961,0.004180,100,0.114459,-0.002129,  82.009
   179.8,0.007932,0.004163,100,0.114290,-0.002142,  82.007
   180.0,0.007904,0.004145,100,0.114132,-0.002164,  82.003
   180.2,0.007878,0.004133,100,0.113967,-0.002164,  82.002
   180.4,0.007849,0.004120,100,0.113502,-0.002164,  81.999
   180.6,0.007830,0.004110,100,0.112902,-0.002186,  81.995
   180.8,0.007816,0.004097,100,0.112152,-0.002151,  81.995
   181.0,0.007795,0.004085,100,0.111888,-0.002139,  81.990
   181.2,0.007778,0.004076,100,0.111791,-0.002161,  81.989
   181.4,0.007766,0.004059,100,0.111853,-0.002126,  81.987
   181.6,0.007747,0.004042,100,0.111669,-0.002126,  81.989
   181.8,0.007733,0.004030,100,0.111451,-0.002148,  81.986
   182.0,0.007709,0.004017,100,0.111187,-0.002113,  81.979
   182.2,0.007693,0.004001,100,0.111008,-0.002113,  81.981
   182.4,0.007667,0.003981,100,0.110849,-0.002148,  81.975
   182.6,0.007638,0.003969,100,0.110708,-0.002113,  81.977
   182.8,0.007608,0.003950,100,0.110508,-0.002113,  81.977
   183.0,0.007572,0.003928,100,0.110281,-0.002135,  81.974
   183.2,0.007537,0.003906,100,0.110032,-0.002123,  81.976
   183.4,0.007500,0.003886,100,0.109831,-0.002145,  81.977
   183.6,0.007462,0.003866,100,0.109628,-0.002167,  81.967
   183.8,0.007430,0.003852,100,0.109440,-0.002119,  81.970
   184.0,0.007395,0.003830,100,0.109136,-0.002132,  81.970
   184.2,0.007357,0.003806,100,0.108772,-0.002154,  81.963
   184.4,0.007323,0.003784,100,0.108365,-0.002141,  81.963
   184.6,0.007286,0.003759,100,0.108015,-0.002163,  81.963
   184.8,0.007248,0.003737,100,0.107661,-0.002163,  81.958
   185.0,0.007215,0.003715,100,0.107306,-0.002185,  81.957
   185.2,0.007181,0.003688,100,0.106938,-0.002185,  81.958
   185.4,0.007148,0.003667,100,0.106553,-0.002172,  81.953
   185.6,0.007110,0.003648,100,0.106158,-0.002160,  81.953
   185.8,0.007080,0.003623,100,0.105763,-0.002194,  81.951
   186.0,0.007044,0.003600,100,0.105353,-0.002194,  81.946
   186.2,0.007002,0.003579,100,0.104932,-0.002182,  81.942
   186.4,0.006970,0.003558,100,0.104591,-0.002216,  81.944
   186.6,0.006933,0.003533,100,0.104288,-0.002194,  81.941
   186.8,0.006900,0.003510,100,0.104015,-0.002194,  81.942
   187.0,0.006863,0.003488,100,0.103778,-0.002216,  81.942
   187.2,0.006820,0.003466,100,0.103442,-0.002204,  81.935
   187.4,0.006776,0.003450,100,0.103089,-0.002191,  81.937
   187.6,0.006725,0.003430,100,0.102722,-0.002191,  81.938
   187.8,0.006678,0.003401,100,0.102318,-0.002178,  81.925
   188.0,0.006634,0.003373,100,0.101897,-0.002166,  81.924
   188.2,0.006588,0.003338,100,0.101435,-0.002200,  81.919
   188.4,0.006535,0.003309,100,0.101014,-0.002188,  81.916
   188.6,0.006494,0.003283,100,0.100594,-0.002210,  81.920
   188.8,0.006450,0.003253,100,0.100178,-0.002210,  81.918
   189.0,0.006405,0.003224,100,0.099481,-0.002210,  81.914
   189.2,0.006363,0.003198,100,0.098628,-0.002232,  81.909
   189.4,0.006334,0.003178,100,0.097642,-0.002232,  81.913
   189.6,0.006297,0.003152,100,0.097126,-0.002232,  81.909
   189.8,0.006257,0.003130,100,0.096766,-0.002254,  81.911
   190.0,0.006225,0.003106,100,0.096563,-0.002241,  81.909
   190.2,0.006186,0.003081,100,0.096206,-0.002241,  81.908
   190.4,0.006144,0.003050,100,0.095852,-0.002263,  81.906
   190.6,0.006100,0.003023,100,0.095497,-0.002203,  81.905
   190.8,0.006066,0.002994,100,0.094784,-0.002215,  81.908
   191.0,0.006033,0.002967,100,0.093890,-0.002237,  81.909
   191.2,0.006005,0.002946,100,0.092826,-0.002237,  81.910
   191.4,0.005984,0.002913,100,0.092423,-0.002237,  81.909
   191.6,0.005940,0.002879,100,0.092244,-0.002259,  81.910
   191.8,0.005896,0.002849,100,0.092317,-0.002259,  81.906
   192.0,0.005840,0.002821,100,0.091995,-0.002225,  81.904
   192.2,0.005791,0.002785,100,0.091590,-0.002247,  81.900
   192.4,0.005747,0.002759,100,0.091107,-0.002234,  81.900
   192.6,0.005699,0.002730,100,0.090427,-0.002221,  81.909
   192.8,0.005652,0.002703,100,0.089600,-0.002243,  81.903
   193.0,0.005610,0.002679,100,0.088626,-0.002243,  81.907
   193.2,0.005563,0.002647,100,0.088125,-0.002243,  81.906
   193.4,0.005519,0.002620,100,0.087778,-0.002265,  81.906
   193.6,0.005474,0.002594,100,0.087579,-0.002253,  81.904
   193.8,0.005435,0.002565,100,0.087169,-0.002231,  81.904
   194.0,0.005390,0.002539,100,0.086728,-0.002218,  81.906
   194.2,0.005348,0.002513,100,0.086265,-0.002240,  81.905
   194.4,0.005314,0.002485,100,0.085870,-0.002227,  81.907
   194.6,0.005272,0.002459,100,0.085499,-0.002214,  81.905
   194.8,0.005231,0.002428,100,0.085163,-0.002236,  81.907
   195.0,0.005182,0.002401,100,0.084767,-0.002236,  81.911
   195.2,0.005137,0.002371,100,0.084363,-0.002249,  81.913
   195.4,0.005093,0.002346,100,0.083941,-0.002236,  81.914
   195.6,0.005052,0.002315,100,0.083577,-0.002236,  81.916
   195.8,0.005003,0.002279,100,0.083234,-0.002258,  81.915
   196.0,0.004957,0.002254,100,0.082911,-0.002233,  81.915
   196.2,0.004909,0.002228,100,0.082606,-0.002268,  81.920
   196.4,0.004862,0.002204,100,0.082182,-0.002233,  81.920
   196.6,0.004818,0.002183,100,0.081730,-0.002220,  81.922
   196.8,0.004775,0.002166,100,0.081238,-0.002242,  81.918
   197.0,0.004728,0.002136,100,0.080700,-0.002220,  81.920
   197.2,0.004686,0.002108,100,0.080127,-0.002255,  81.924
   197.4,0.004646,0.002075,100,0.079503,-0.002230,  81.921
   197.6,0.004602,0.002049,100,0.078951,-0.002230,  81.923
   197.8,0.004560,0.002019,100,0.078408,-0.002252,  81.926
   198.0,0.004519,0.002001,100,0.077875,-0.002239,  81.932
   198.2,0.004477,0.001976,100,0.077292,-0.002239,  81.931
   198.4,0.004440,0.001950,100,0.076679,-0.002261,  81.928
   198.6,0.004403,0.001928,100,0.076044,-0.002261,  81.932
   198.8,0.004361,0.001902,100,0.075565,-0.002226,  81.935
   199.0,0.004317,0.001875,100,0.075147,-0.002235,  81.937
   199.2,0.004275,0.001849,100,0.074796,-0.002235,  81.938
   199.4,0.004236,0.001821,100,0.074342,-0.002223,  81.943
   199.6,0.004192,0.001795,100,0.073878,-0.002245,  81.946
   199.8,0.004153,0.001767,100,0.073405,-0.002232,  81.949
   200.0,0.004118,0.001737,100,0.072914,-0.002245,  81.952
   200.2,0.004073,0.001711,100,0.072420,-0.002279,  81.954
   200.4,0.004049,0.001683,100,0.071916,-0.002245,  81.960
   200.6,0.004013,0.001655,100,0.071431,-0.002223,  81.961
   200.8,0.003969,0.001626,100,0.070948,-0.002257,  81.962
   201.0,0.003928,0.001596,100,0.070469,-0.002232,  81.967
   201.2,0.003879,0.001567,100,0.069787,-0.002219,  81.973
   201.4,0.003834,0.001546,100,0.068997,-0.002241,  81.967
   201.6,0.003795,0.001518,100,0.068105,-0.002229,  81.976
   201.8,0.003754,0.001491,100,0.067552,-0.002194,  81.976
   202.0,0.003717,0.001468,100,0.067108,-0.002216,  81.976
   202.2,0.003678,0.001451,100,0.066789,-0.002203,  81.972
   202.4,0.003639,0.001430,100,0.066397,-0.002190,  81.978
   202.6,0.003605,0.001401,100,0.066021,-0.002212,  81.978
   202.8,0.003571,0.001378,100,0.065672,-0.002212,  81.984
   203.0,0.003534,0.001355,100,0.065266,-0.002212,  81.980
   203.2,0.003494,0.001331,100,0.064836,-0.002212,  81.981
   203.4,0.003460,0.001306,100,0.064385,-0.002222,  81.980
   203.6,0.003423,0.001280,100,0.063972,-0.002222,  81.984
   203.8,0.003381,0.001254,100,0.063563,-0.002209,  81.987
   204.0,0.003337,0.001235,100,0.063162,-0.002231,  81.987
   204.2,0.003298,0.001213,100,0.062793,-0.002218,  81.984
   204.4,0.003259,0.001185,100,0.062440,-0.002218,  81.986
   204.6,0.003214,0.001161,100,0.062112,-0.002205,  81.986
   204.8,0.003176,0.001137,100,0.061796,-0.002228,  81.986
   205.0,0.003136,0.001116,100,0.061401,-0.002215,  81.986
   205.2,0.003097,0.001097,100,0.060989,-0.002237,  81.985
   205.4,0.003060,0.001084,100,0.060546,-0.002224,  81.985
   205.6,0.003018,0.001063,100,0.060075,-0.002224,  81.985
   205.8,0.002979,0.001036,100,0.059574,-0.002224,  81.985
   206.0,0.002940,0.001010,100,0.059037,-0.002224,  81.983
   206.2,0.002898,0.000986,100,0.058556,-0.002215,  81.984
   206.4,0.002864,0.000958,100,0.058086,-0.002250,  81.987
   206.6,0.002838,0.000937,100,0.057617,-0.002237,  81.990
   206.8,0.002798,0.000915,100,0.057159,-0.002211,  81.985
   207.0,0.002763,0.000889,100,0.056704,-0.002221,  81.989
   207.2,0.002727,0.000868,100,0.056252,-0.002208,  81.986
   207.4,0.002689,0.000843,100,0.055816,-0.002208,  81.987
   207.6,0.002653,0.000821,100,0.055396,-0.002230,  81.985
   207.8,0.002616,0.000793,100,0.054986,-0.002217,  81.987
   208.0,0.002579,0.000768,100,0.054366,-0.002217,  81.985
   208.2,0.002540,0.000748,100,0.053649,-0.002227,  81.989
   208.4,0.002503,0.000725,100,0.052836,-0.002214,  81.994
   208.6,0.002471,0.000699,100,0.052017,-0.002214,  81.990
   208.8,0.002444,0.000675,100,0.051153,-0.002236,  81.987
   209.0,0.002411,0.000654,100,0.050227,-0.002223,  81.991
   209.2,0.002386,0.000625,100,0.049880,-0.002214,  81.987
   209.4,0.002348,0.000598,100,0.049786,-0.002249,  81.992
   209.6,0.002310,0.000577,100,0.049945,-0.002223,  81.990
   209.8,0.002271,0.000553,100,0.049760,-0.002223,  81.989
   210.0,0.002237,0.000531,100,0.049525,-0.002245,  81.998
   210.2,0.002194,0.000508,100,0.049250,-0.002232,  81.990
   210.4,0.002160,0.000487,100,0.048957,-0.002232,  81.991
   210.6,0.002131,0.000463,100,0.048641,-0.002254,  81.988
   210.8,0.002093,0.000438,100,0.048284,-0.002276,  81.991
   211.0,0.002061,0.000413,100,0.047586,-0.002242,  81.994
   211.2,0.002032,0.000388,100,0.046698,-0.002229,  81.996
   211.4,0.001994,0.000372,100,0.045624,-0.002264,  81.989
   211.6,0.001968,0.000352,100,0.045221,-0.002229,  81.996
   211.8,0.001930,0.000328,100,0.045055,-0.002216,  81.991
   212.0,0.001893,0.000310,100,0.045129,-0.002251,  81.999
   212.2,0.001863,0.000287,100,0.044966,-0.002216,  82.004
   212.4,0.001826,0.000270,100,0.044798,-0.002216,  82.003
   212.6,0.001794,0.000248,100,0.044632,-0.002238,  82.006
   212.8,0.001759,0.000224,100,0.044243,-0.002238,  82.007
   213.0,0.001724,0.000204,100,0.043746,-0.002203,  82.004
   213.2,0.001700,0.000187,100,0.043141,-0.002238,  82.005
   213.4,0.001666,0.000166,100,0.042815,-0.002203,  82.005
   213.6,0.001631,0.000141,100,0.042563,-0.002203,  82.011
   213.8,0.001604,0.000120,100,0.042399,-0.002203,  82.011
   214.0,0.001573,0.000100,100,0.042316,-0.002213,  82.010
   214.2,0.001537,0.000083,100,0.042052,-0.002213,  82.012
   214.4,0.001508,0.000069,100,0.041761,-0.002235,  82.014
   214.6,0.001476,0.000060,100,0.041444,-0.002244,  82.012
   214.8,0.001443,0.000040,100,0.041191,-0.002253,  82.013
   215.0,0.001416,0.000021,100,0.040952,-0.002288,  82.015
   215.2,0.001396,0.000006,100,0.040728,-0.002288,  82.019
   215.4,0.001361,-0.000014,100,0.040362,-0.002253,  82.018
   215.6,0.001332,-0.000032,100,0.039934,-0.002288,  82.018
   215.8,0.001309,-0.000044,100,0.039435,-0.002288,  82.021
   216.0,0.001279,-0.000058,100,0.039062,-0.002253,  82.020
   216.2,0.001248,-0.000081,100,0.038716,-0.002275,  82.022
   216.4,0.001222,-0.000096,100,0.038387,-0.002263,  82.023
   216.6,0.001194,-0.000116,100,0.038042,-0.002250,  82.028
   216.8,0.001166,-0.000136,100,0.037706,-0.002272,  82.028
   217.0,0.001139,-0.000157,100,0.037365,-0.002224,  82.032
   217.2,0.001108,-0.000179,100,0.037044,-0.002237,  82.032
   217.4,0.001073,-0.000197,100,0.036737,-0.002259,  82.030
   217.6,0.001046,-0.000216,100,0.036443,-0.002247,  82.033
   217.8,0.001023,-0.000236,100,0.035842,-0.002234,  82.032
   218.0,0.000990,-0.000253,100,0.035082,-0.002256,  82.039
   218.2,0.000965,-0.000269,100,0.034175,-0.002256,  82.028
   218.4,0.000945,-0.000282,100,0.033660,-0.002208,  82.033
   218.6,0.000921,-0.000299,100,0.033256,-0.002230,  82.036
   218.8,0.000908,-0.000314,100,0.032967,-0.002218,  82.033
   219.0,0.000892,-0.000333,100,0.032780,-0.002218,  82.036
   219.2,0.000866,-0.000352,100,0.032713,-0.002240,  82.032
   219.4,0.000844,-0.000371,100,0.032752,-0.002214,  82.035
   219.6,0.000821,-0.000388,100,0.032605,-0.002227,  82.036
   219.8,0.000793,-0.000406,100,0.032435,-0.002249,  82.033
   220.0,0.000775,-0.000420,100,0.032231,-0.002249,  82.034
   220.2,0.000750,-0.000435,100,0.031988,-0.002214,  82.034
   220.4,0.000724,-0.000453,100,0.031706,-0.002201,  82.031
   220.6,0.000699,-0.000466,100,0.031395,-0.002214,  82.037
   220.8,0.000671,-0.000481,100,0.031132,-0.002214,  82.044
   221.0,0.000643,-0.000497,100,0.030869,-0.002201,  82.046
   221.2,0.000623,-0.000513,100,0.030612,-0.002223,  82.049
   221.4,0.000596,-0.000533,100,0.030384,-0.002198,  82.047
   221.6,0.000568,-0.000544,100,0.030163,-0.002185,  82.048
   221.8,0.000545,-0.000562,100,0.029966,-0.002220,  82.047
   222.0,0.000520,-0.000582,100,0.029738,-0.002172,  82.049
   222.2,0.000496,-0.000596,100,0.029503,-0.002220,  82.048
   222.4,0.000476,-0.000606,100,0.029256,-0.002220,  82.045
   222.6,0.000461,-0.000621,100,0.028942,-0.002220,  82.046
   222.8,0.000429,-0.000637,100,0.028585,-0.002220,  82.046
   223.0,0.000409,-0.000645,100,0.028195,-0.002220,  82.040
   223.2,0.000386,-0.000657,100,0.027764,-0.002242,  82.041
   223.4,0.000360,-0.000667,100,0.027555,-0.002242,  82.035
   223.6,0.000342,-0.000679,100,0.027415,-0.002242,  82.038
   223.8,0.000325,-0.000686,100,0.027330,-0.002251,  82.039
   224.0,0.000304,-0.000699,100,0.027133,-0.002217,  82.041
   224.2,0.000286,-0.000716,100,0.026917,-0.002204,  82.043
   224.4,0.000263,-0.000731,100,0.026665,-0.002226,  82.036
   224.6,0.000245,-0.000743,100,0.026558,-0.002191,  82.031
   224.8,0.000221,-0.000759,100,0.026508,-0.002213,  82.029
   225.0,0.000195,-0.000771,100,0.026516,-0.002200,  82.030
   225.2,0.000177,-0.000782,100,0.026266,-0.002188,  82.028
   225.4,0.000157,-0.000795,100,0.025907,-0.002210,  82.031
   225.6,0.000134,-0.000813,100,0.025450,-0.002210,  82.029
   225.8,0.000116,-0.000829,100,0.025171,-0.002210,  82.026
   226.0,0.000093,-0.000838,100,0.024930,-0.002232,  82.021
   226.2,0.000070,-0.000855,100,0.024726,-0.002219,  82.027
   226.4,0.000055,-0.000871,100,0.024490,-0.002197,  82.023
   226.6,0.000035,-0.000879,100,0.024256,-0.002232,  82.028
   226.8,0.000022,-0.000888,100,0.024030,-0.002219,  82.021
   227.0,0.000013,-0.000902,100,0.023789,-0.002219,  82.019
   227.2,-0.000004,-0.000911,100,0.023542,-0.002254,  82.014
   227.4,-0.000015,-0.000920,100,0.023286,-0.002206,  82.016
   227.6,-0.000036,-0.000930,100,0.023071,-0.002206,  82.013
   227.8,-0.000053,-0.000940,100,0.022857,-0.002228,  82.021
   228.0,-0.000071,-0.000949,100,0.022659,-0.002216,  82.016
   228.2,-0.000089,-0.000963,100,0.022456,-0.002203,  82.009
   228.4,-0.000106,-0.000971,100,0.022260,-0.002212,  82.013
   228.6,-0.000122,-0.000988,100,0.022064,-0.002212,  82.012
   228.8,-0.000136,-0.001001,100,0.021827,-0.002199,  82.013
   229.0,-0.000157,-0.001012,100,0.021568,-0.002221,  82.017
   229.2,-0.000170,-0.001018,100,0.021293,-0.002209,  82.019
   229.4,-0.000188,-0.001027,100,0.021076,-0.002209,  82.016
   229.6,-0.000209,-0.001041,100,0.020876,-0.002196,  82.012
   229.8,-0.000225,-0.001051,100,0.020699,-0.002231,  82.018
   230.0,-0.000239,-0.001059,100,0.020518,-0.002183,  82.018
   230.2,-0.000256,-0.001073,100,0.020338,-0.002183,  82.017
   230.4,-0.000274,-0.001084,100,0.020154,-0.002205,  82.012
   230.6,-0.000284,-0.001096,100,0.019998,-0.002218,  82.020
   230.8,-0.000303,-0.001104,100,0.019847,-0.002218,  82.027
   231.0,-0.000317,-0.001107,100,0.019714,-0.002205,  82.019
   231.2,-0.000327,-0.001118,100,0.019589,-0.002240,  82.025
   231.4,-0.000347,-0.001127,100,0.019419,-0.002205,  82.023
   231.6,-0.000360,-0.001138,100,0.019227,-0.002192,  82.026
   231.8,-0.000378,-0.001145,100,0.019030,-0.002215,  82.021
   232.0,-0.000398,-0.001153,100,0.018841,-0.002180,  82.021
   232.2,-0.000409,-0.001159,100,0.018645,-0.002167,  82.024
   232.4,-0.000423,-0.001166,100,0.018446,-0.002202,  82.026
   232.6,-0.000442,-0.001175,100,0.018220,-0.002202,  82.023
   232.8,-0.000453,-0.001184,100,0.017986,-0.002189,  82.016
   233.0,-0.000461,-0.001197,100,0.017736,-0.002224,  82.021
   233.2,-0.000472,-0.001210,100,0.017552,-0.002224,  82.021
   233.4,-0.000486,-0.001219,100,0.017402,-0.002233,  82.022
   233.6,-0.000500,-0.001229,100,0.017283,-0.002220,  82.030
   233.8,-0.000511,-0.001236,100,0.017149,-0.002208,  82.031
   234.0,-0.000532,-0.001246,100,0.017020,-0.002230,  82.027
   234.2,-0.000546,-0.001250,100,0.016901,-0.002230,  82.030
   234.4,-0.000557,-0.001257,100,0.016735,-0.002217,  82.029
   234.6,-0.000577,-0.001267,100,0.016553,-0.002239,  82.028
   234.8,-0.000582,-0.001277,100,0.016346,-0.002239,  82.036
   235.0,-0.000591,-0.001287,100,0.015883,-0.002204,  82.039
   235.2,-0.000604,-0.001297,100,0.015286,-0.002226,  82.034
   235.4,-0.000615,-0.001306,100,0.014544,-0.002226,  82.038
   235.6,-0.000622,-0.001312,100,0.014343,-0.002226,  82.039
   235.8,-0.000633,-0.001321,100,0.014346,-0.002236,  82.037
   236.0,-0.000645,-0.001329,100,0.014548,-0.002210,  82.033
   236.2,-0.000658,-0.001339,100,0.014548,-0.002219,  82.039
   236.4,-0.000670,-0.001346,100,0.014556,-0.002207,  82.031
   236.6,-0.000684,-0.001350,100,0.014565,-0.002207,  82.037
   236.8,-0.000693,-0.001358,100,0.014523,-0.002245,  82.037
   237.0,-0.000702,-0.001365,100,0.014454,-0.002232,  82.039
   237.2,-0.000719,-0.001367,100,0.014355,-0.002219,  82.040
   237.4,-0.000725,-0.001374,100,0.014246,-0.002219,  82.038
   237.6,-0.000732,-0.001385,100,0.014130,-0.002207,  82.045
   237.8,-0.000746,-0.001387,100,0.013989,-0.002207,  82.048
   238.0,-0.000750,-0.001394,100,0.013855,-0.002219,  82.051
   238.2,-0.000759,-0.001400,100,0.013732,-0.002219,  82.048
   238.4,-0.000774,-0.001406,100,0.013604,-0.002194,  82.047
   238.6,-0.000779,-0.001411,100,0.013479,-0.002207,  82.049
   238.8,-0.000786,-0.001415,100,0.013363,-0.002194,  82.052
   239.0,-0.000801,-0.001419,100,0.013251,-0.002181,  82.052
   239.2,-0.000802,-0.001425,100,0.013159,-0.002181,  82.052
   239.4,-0.000814,-0.001431,100,0.013083,-0.002181,  82.060
   239.6,-0.000829,-0.001439,100,0.013011,-0.002203,  82.058
   239.8,-0.000840,-0.001443,100,0.012962,-0.002203,  82.054
   240.0,-0.000853,-0.001449,100,0.012842,-0.002203,  82.052
   240.2,-0.000860,-0.001451,100,0.012700,-0.002225,  82.056
   240.4,-0.000863,-0.001455,100,0.012542,-0.002235,  82.056
   240.6,-0.000878,-0.001461,100,0.012407,-0.002200,  82.058
   240.8,-0.000885,-0.001464,100,0.012276,-0.002187,  82.057
   241.0,-0.000888,-0.001467,100,0.012145,-0.002209,  82.061
   241.2,-0.000900,-0.001474,100,0.012060,-0.002196,  82.058
   241.4,-0.000907,-0.001480,100,0.011986,-0.002183,  82.059
   241.6,-0.000908,-0.001488,100,0.011932,-0.002196,  82.062
   241.8,-0.000919,-0.001495,100,0.011845,-0.002196,  82.063
   242.0,-0.000925,-0.001502,100,0.011743,-0.002183,  82.064
   242.2,-0.000927,-0.001498,100,0.011626,-0.002183,  82.067
   242.4,-0.000939,-0.001504,100,0.011515,-0.002183,  82.069
   242.6,-0.000948,-0.001510,100,0.011404,-0.002158,  82.071
   242.8,-0.000951,-0.001514,100,0.011291,-0.002180,  82.063
   243.0,-0.000962,-0.001523,100,0.011190,-0.002180,  82.065
   243.2,-0.000976,-0.001525,100,0.011093,-0.002189,  82.065
   243.4,-0.000983,-0.001530,100,0.011004,-0.002177,  82.070
   243.6,-0.000988,-0.001537,100,0.010559,-0.002177,  82.069
   243.8,-0.001001,-0.001543,100,0.009952,-0.002199,  82.071
   244.0,-0.000997,-0.001543,100,0.009169,-0.002164,  82.071
   244.2,-0.000999,-0.001549,100,0.009032,-0.002164,  82.073
   244.4,-0.001003,-0.001551,100,0.009136,-0.002186,  82.078
   244.6,-0.001006,-0.001555,100,0.009472,-0.002151,  82.075
   244.8,-0.001005,-0.001561,100,0.009306,-0.002151,  82.072
   245.0,-0.001012,-0.001566,100,0.009010,-0.002173,  82.080
   245.2,-0.001011,-0.001570,100,0.008579,-0.002173,  82.077
   245.4,-0.001020,-0.001574,100,0.008563,-0.002173,  82.075
   245.6,-0.001031,-0.001574,100,0.008684,-0.002182,  82.078
   245.8,-0.001032,-0.001577,100,0.008945,-0.002170,  82.080
   246.0,-0.001041,-0.001581,100,0.009004,-0.002157,  82.080
   246.2,-0.001051,-0.001580,100,0.009033,-0.002166,  82.077
   246.4,-0.001052,-0.001583,100,0.009034,-0.002166,  82.079
   246.6,-0.001061,-0.001589,100,0.009072,-0.002166,  82.079
   246.8,-0.001071,-0.001592,100,0.009098,-0.002166,  82.074
   247.0,-0.001070,-0.001596,100,0.009132,-0.002188,  82.078
   247.2,-0.001077,-0.001602,100,0.009129,-0.002153,  82.078
   247.4,-0.001087,-0.001604,100,0.009092,-0.002153,  82.079
   247.6,-0.001088,-0.001605,100,0.009035,-0.002176,  82.077
   247.8,-0.001095,-0.001608,100,0.008971,-0.002128,  82.081
   248.0,-0.001107,-0.001611,100,0.008895,-0.002128,  82.082
   248.2,-0.001104,-0.001617,100,0.008800,-0.002137,  82.075
   248.4,-0.001105,-0.001622,100,0.008691,-0.002137,  82.081
   248.6,-0.001107,-0.001625,100,0.008612,-0.002137,  82.080
   248.8,-0.001121,-0.001632,100,0.008526,-0.002124,  82.076
   249.0,-0.001126,-0.001637,100,0.008449,-0.002124,  82.078
   249.2,-0.001129,-0.001637,100,0.008387,-0.002137,  82.076
   249.4,-0.001137,-0.001644,100,0.008341,-0.002172,  82.074
   249.6,-0.001145,-0.001642,100,0.008309,-0.002147,  82.082
   249.8,-0.001153,-0.001644,100,0.008231,-0.002134,  82.083
   250.0,-0.001157,-0.001647,100,0.008139,-0.002156,  82.080
   250.2,-0.001164,-0.001651,100,0.008035,-0.002143,  82.081
   250.4,-0.001174,-0.001657,100,0.007984,-0.002108,  82.087
   250.6,-0.001172,-0.001663,100,0.007948,-0.002095,  82.088
   250.8,-0.001170,-0.001666,100,0.007936,-0.002130,  82.085
   251.0,-0.001178,-0.001674,100,0.007859,-0.002130,  82.087
   251.2,-0.001183,-0.001676,100,0.007765,-0.002117,  82.087
   251.4,-0.001190,-0.001678,100,0.007646,-0.002165,  82.082
   251.6,-0.001196,-0.001685,100,0.007578,-0.002130,  82.087
   251.8,-0.001198,-0.001685,100,0.007530,-0.002117,  82.079
   252.0,-0.001206,-0.001686,100,0.007487,-0.002152,  82.078
   252.2,-0.001211,-0.001689,100,0.007425,-0.002140,  82.085
   252.4,-0.001213,-0.001692,100,0.007363,-0.002127,  82.076
   252.6,-0.001220,-0.001695,100,0.007295,-0.002149,  82.080
   252.8,-0.001222,-0.001699,100,0.007213,-0.002136,  82.080
   253.0,-0.001224,-0.001703,100,0.007118,-0.002158,  82.074
   253.2,-0.001232,-0.001709,100,0.007013,-0.002145,  82.078
   253.4,-0.001234,-0.001709,100,0.006930,-0.002158,  82.078
   253.6,-0.001237,-0.001709,100,0.006861,-0.002180,  82.078
   253.8,-0.001241,-0.001711,100,0.006792,-0.002155,  82.078
   254.0,-0.001248,-0.001716,100,0.006745,-0.002164,  82.081
   254.2,-0.001250,-0.001718,100,0.006708,-0.002199,  82.074
   254.4,-0.001258,-0.001719,100,0.006690,-0.002164,  82.078
   254.6,-0.001262,-0.001724,100,0.006628,-0.002142,  82.075
   254.8,-0.001262,-0.001724,100,0.006558,-0.002164,  82.085
   255.0,-0.001270,-0.001717,100,0.006472,-0.002164,  82.083
   255.2,-0.001265,-0.001720,100,0.006378,-0.002142,  82.082
   255.4,-0.001262,-0.001720,100,0.006270,-0.002151,  82.082
   255.6,-0.001270,-0.001721,100,0.006159,-0.002151,  82.084
   255.8,-0.001267,-0.001727,100,0.006112,-0.002116,  82.083
   256.0,-0.001267,-0.001725,100,0.006092,-0.002104,  82.085
   256.2,-0.001273,-0.001729,100,0.006105,-0.002104,  82.085
   256.4,-0.001272,-0.001731,100,0.006088,-0.002139,  82.081
   256.6,-0.001274,-0.001728,100,0.006070,-0.002116,  82.084
   256.8,-0.001282,-0.001730,100,0.006055,-0.002139,  82.079
   257.0,-0.001281,-0.001734,100,0.005995,-0.002139,  82.080
   257.2,-0.001283,-0.001732,100,0.005901,-0.002126,  82.073
   257.4,-0.001294,-0.001737,100,0.005789,-0.002161,  82.077
   257.6,-0.001292,-0.001741,100,0.005702,-0.002126,  82.076
   257.8,-0.001292,-0.001737,100,0.005612,-0.002126,  82.069
   258.0,-0.001300,-0.001740,100,0.005529,-0.002148,  82.071
   258.2,-0.001296,-0.001744,100,0.005438,-0.002148,  82.073
   258.4,-0.001294,-0.001746,100,0.005439,-0.002135,  82.065
   258.6,-0.001302,-0.001743,100,0.005486,-0.002157,  82.069
   258.8,-0.001299,-0.001743,100,0.005559,-0.002144,  82.070
   259.0,-0.001299,-0.001746,100,0.005587,-0.002132,  82.070
   259.2,-0.001301,-0.001744,100,0.005627,-0.002154,  82.073
   259.4,-0.001302,-0.001742,100,0.005657,-0.002154,  82.071
   259.6,-0.001302,-0.001742,100,0.005577,-0.002154,  82.070
   259.8,-0.001305,-0.001744,100,0.005441,-0.002176,  82.068
   260.0,-0.001308,-0.001745,100,0.005253,-0.002176,  82.066
   260.2,-0.001308,-0.001745,100,0.005184,-0.002141,  82.070
   260.4,-0.001313,-0.001751,100,0.005149,-0.002128,  82.065
   260.6,-0.001310,-0.001751,100,0.005151,-0.002138,  82.073
   260.8,-0.001312,-0.001751,100,0.004932,-0.002138,  82.068
   261.0,-0.001312,-0.001754,100,0.004619,-0.002125,  82.067
   261.2,-0.001309,-0.001757,100,0.004219,-0.002147,  82.066
   261.4,-0.001309,-0.001761,100,0.004174,-0.002112,  82.067
   261.6,-0.001311,-0.001759,100,0.004246,-0.002099,  82.068
   261.8,-0.001311,-0.001762,100,0.004459,-0.002134,  82.070
   262.0,-0.001319,-0.001765,100,0.004504,-0.002112,  82.065
   262.2,-0.001324,-0.001768,100,0.004523,-0.002099,  82.070
   262.4,-0.001324,-0.001763,100,0.004531,-0.002121,  82.070
   262.6,-0.001327,-0.001760,100,0.004546,-0.002121,  82.071
   262.8,-0.001332,-0.001764,100,0.004551,-0.002096,  82.066
   263.0,-0.001332,-0.001761,100,0.004547,-0.002118,  82.068
   263.2,-0.001329,-0.001760,100,0.004533,-0.002105,  82.069
   263.4,-0.001335,-0.001759,100,0.004512,-0.002114,  82.068
   263.6,-0.001327,-0.001763,100,0.004473,-0.002114,  82.074
   263.8,-0.001329,-0.001768,100,0.004451,-0.002114,  82.070
   264.0,-0.001332,-0.001767,100,0.004440,-0.002136,  82.074
   264.2,-0.001332,-0.001764,100,0.004434,-0.002102,  82.070
   264.4,-0.001332,-0.001765,100,0.004415,-0.002102,  82.066
   264.6,-0.001338,-0.001765,100,0.004386,-0.002124,  82.069
   264.8,-0.001338,-0.001762,100,0.004365,-0.002089,  82.071
   265.0,-0.001335,-0.001760,100,0.004349,-0.002089,  82.065
   265.2,-0.001340,-0.001761,100,0.004334,-0.002089,  82.069
   265.4,-0.001338,-0.001760,100,0.004327,-0.002111,  82.073
   265.6,-0.001335,-0.001763,100,0.004311,-0.002111,  82.065
   265.8,-0.001340,-0.001760,100,0.004295,-0.002076,  82.061
   266.0,-0.001337,-0.001763,100,0.004275,-0.002098,  82.058
   266.2,-0.001336,-0.001765,100,0.004254,-0.002085,  82.064
   266.4,-0.001341,-0.001763,100,0.004233,-0.002072,  82.058
   266.6,-0.001334,-0.001762,100,0.004201,-0.002095,  82.060
   266.8,-0.001334,-0.001761,100,0.004165,-0.002082,  82.057
   267.0,-0.001336,-0.001760,100,0.004113,-0.002072,  82.053
   267.2,-0.001336,-0.001757,100,0.004044,-0.002095,  82.050
   267.4,-0.001332,-0.001755,100,0.003973,-0.002082,  82.055
   267.6,-0.001335,-0.001757,100,0.003949,-0.002069,  82.053
   267.8,-0.001340,-0.001762,100,0.003958,-0.002091,  82.057
   268.0,-0.001332,-0.001761,100,0.003977,-0.002091,  82.054
   268.2,-0.001332,-0.001763,100,0.003957,-0.002078,  82.047
   268.4,-0.001338,-0.001764,100,0.003923,-0.002088,  82.049
   268.6,-0.001332,-0.001760,100,0.003885,-0.002088,  82.051
   268.8,-0.001332,-0.001761,100,0.003870,-0.002040,  82.051
   269.0,-0.001338,-0.001761,100,0.003850,-0.002062,  82.046
   269.2,-0.001332,-0.001757,N/A,0.003843,-0.002062,  82.050
   269.4,-0.001332,-0.001761,N/A,0.003813,-0.002040,  82.043
   269.6,-0.001338,-0.001759,N/A,0.003771,-0.002075,  82.045
   269.8,-0.001332,-0.001756,N/A,0.003722,-0.002062,  82.044
