Run Name,CRL dead time 50%_group 4_02 20 14
Run Date,12:55:10 PM   02-20-14
Method Name,50%B-Isocratic.3
Export Format Version, 1.00
Method ID, 1792
Points/Second, 5.00
Number of Records,   3619
Offset from Run Start Time,00:00:00
Run End Time,00:12:06
Time,Second
QuadTec 1, (280.0 nm), AU
QuadTec 2, (260.0 nm), AU
Gradient Pump,<Not Selected>
QuadTec 3, (214.0 nm), AU
QuadTec 4, (405.0 nm), AU
Conductivity,mS/cm
Trace 6,<Not Available>
GP Pressure,<Not Selected>
Volume,<Not Selected>
Fraction,<Not Available>
Time,QuadTec 1,QuadTec 2,QuadTec 3,QuadTec 4,Conductivity
     0.0,0.008871,0.000000,0.250688,0.000000,  48.861
     0.2,0.008893,0.000000,0.250688,0.000000,  48.861
     0.4,0.008891,0.000000,0.250688,0.000000,  48.861
     0.6,0.008915,0.000000,0.250688,0.000000,  48.857
     0.8,0.000000,0.000000,0.000000,0.000000,  48.862
     1.0,0.000000,0.000000,0.000000,0.000000,  48.860
     1.2,0.000000,0.000000,0.000000,0.000000,  48.859
     1.4,0.000000,0.000000,0.000000,0.000000,  48.863
     1.6,0.000000,0.000000,0.000000,0.000000,  48.862
     1.8,0.000000,0.000000,0.000000,0.000000,  48.861
     2.0,0.000000,0.000000,0.000000,0.000000,  48.863
     2.2,0.000000,0.000000,0.000000,0.000000,  48.866
     2.4,0.000000,0.000000,0.000000,0.000000,  48.865
     2.6,0.000000,0.000000,0.000000,0.000000,  48.869
     2.8,0.000000,0.000000,0.000000,0.000000,  48.864
     3.0,0.000000,0.000000,0.000000,0.000000,  48.863
     3.2,0.000000,0.000000,0.000000,0.000000,  48.863
     3.4,0.000000,0.000000,0.000000,0.000000,  48.866
     3.6,0.000000,0.000000,0.000000,0.000000,  48.867
     3.8,0.000000,0.000000,0.000000,0.000000,  48.868
     4.0,0.000000,0.000000,0.000000,0.000000,  48.867
     4.2,0.000000,0.000000,0.000000,0.000000,  48.866
     4.4,0.000000,0.000000,0.000000,0.000000,  48.870
     4.6,0.000000,0.000004,0.003782,0.000000,  48.869
     4.8,0.000006,0.000004,0.003906,0.000000,  48.867
     5.0,0.000003,0.000001,0.003953,0.000009,  48.872
     5.2,0.000005,0.000005,0.003895,-0.000013,  48.868
     5.4,0.000008,0.000003,0.003766,-0.000013,  48.866
     5.6,0.000010,-0.000001,0.003531,-0.000013,  48.866
     5.8,0.000008,0.000001,0.003221,-0.000013,  48.868
     6.0,0.000003,0.000001,0.003200,-0.000013,  48.871
     6.2,0.000003,0.000002,0.003288,-0.000013,  48.870
     6.4,0.000003,0.000002,0.003469,0.000000,  48.865
     6.6,0.000009,0.000004,0.003525,0.000000,  48.869
     6.8,0.000009,0.000003,0.003572,0.000000,  48.866
     7.0,0.000005,0.000005,0.003609,0.000013,  48.867
     7.2,0.000012,0.000005,0.003588,0.000013,  48.869
     7.4,0.000012,0.000003,0.003541,0.000000,  48.869
     7.6,0.000008,0.000009,0.003463,0.000000,  48.868
     7.8,0.000005,0.000013,0.003427,0.000000,  48.867
     8.0,0.000005,0.000010,0.003407,0.000000,  48.863
     8.2,0.000005,0.000012,0.003397,0.000000,  48.864
     8.4,0.000003,0.000008,0.003413,0.000000,  48.866
     8.6,0.000003,0.000005,0.003449,0.000000,  48.862
     8.8,0.000003,0.000005,0.003511,0.000000,  48.862
     9.0,0.000003,0.000001,0.003470,0.000000,  48.861
     9.2,0.000003,-0.000005,0.003371,0.000000,  48.860
     9.4,-0.000001,-0.000005,0.003232,0.000000,  48.859
     9.6,0.000003,-0.000001,0.003221,0.000000,  48.859
     9.8,0.000003,-0.000009,0.003257,0.000000,  48.858
    10.0,0.000005,-0.000005,0.003309,0.000000,  48.853
    10.2,0.000003,0.000002,0.003381,-0.000035,  48.854
    10.4,0.000003,-0.000003,0.003489,-0.000035,  48.853
    10.6,0.000003,-0.000003,0.003612,-0.000035,  48.853
    10.8,0.000003,-0.000007,0.003632,-0.000070,  48.853
    11.0,0.000003,-0.000009,0.003628,-0.000035,  48.853
    11.2,0.000000,-0.000009,0.003598,-0.000035,  48.848
    11.4,0.000000,-0.000009,0.003562,-0.000035,  48.844
    11.6,-0.000003,-0.000011,0.003521,-0.000070,  48.844
    11.8,-0.000003,-0.000015,0.003469,-0.000035,  48.843
    12.0,-0.000005,-0.000012,0.003396,-0.000035,  48.843
    12.2,-0.000005,-0.000014,0.003323,-0.000035,  48.840
    12.4,-0.000003,-0.000018,0.003229,-0.000035,  48.840
    12.6,-0.000005,-0.000017,0.003141,-0.000035,  48.842
    12.8,-0.000005,-0.000018,0.003207,-0.000070,  48.841
    13.0,-0.000003,-0.000014,0.003340,-0.000035,  48.837
    13.2,-0.000005,-0.000008,0.003547,-0.000035,  48.836
    13.4,-0.000005,-0.000009,0.003516,-0.000070,  48.836
    13.6,-0.000003,-0.000007,0.003391,-0.000035,  48.838
    13.8,-0.000003,-0.000010,0.003190,-0.000035,  48.832
    14.0,-0.000003,-0.000011,0.003024,-0.000070,  48.832
    14.2,0.000000,-0.000007,0.002839,-0.000035,  48.828
    14.4,0.000000,-0.000008,0.002613,-0.000035,  48.831
    14.6,-0.000003,-0.000011,0.002695,-0.000070,  48.826
    14.8,-0.000003,-0.000004,0.002906,-0.000035,  48.828
    15.0,-0.000005,-0.000006,0.003251,-0.000035,  48.826
    15.2,-0.000007,-0.000009,0.003152,-0.000070,  48.823
    15.4,-0.000004,-0.000007,0.002905,-0.000035,  48.821
    15.6,-0.000005,-0.000009,0.002498,-0.000035,  48.822
    15.8,0.000004,-0.000007,0.002539,-0.000070,  48.821
    16.0,0.000006,-0.000007,0.002730,-0.000035,  48.816
    16.2,0.000006,-0.000005,0.003065,-0.000035,  48.804
    16.4,0.000010,0.000001,0.003184,-0.000070,  48.803
    16.6,0.000013,-0.000004,0.003284,-0.000035,  48.798
    16.8,0.000013,-0.000004,0.003342,-0.000035,  48.801
    17.0,0.000010,-0.000001,0.003439,-0.000057,  48.805
    17.2,0.000013,-0.000003,0.003558,-0.000022,  48.805
    17.4,0.000010,-0.000003,0.003677,-0.000022,  48.803
    17.6,0.000008,-0.000001,0.003552,-0.000044,  48.804
    17.8,0.000010,-0.000004,0.003309,-0.000022,  48.805
    18.0,0.000010,-0.000005,0.002932,-0.000022,  48.806
    18.2,0.000010,-0.000003,0.002922,-0.000044,  48.804
    18.4,0.000013,-0.000005,0.003000,-0.000022,  48.806
    18.6,0.000013,-0.000005,0.003197,-0.000022,  48.808
    18.8,0.000013,-0.000001,0.003260,-0.000044,  48.810
    19.0,0.000019,-0.000003,0.003317,-0.000022,  48.808
    19.2,0.000019,-0.000005,0.003343,-0.000022,  48.812
    19.4,0.000017,-0.000001,0.003369,-0.000044,  48.814
    19.6,0.000014,0.000001,0.003380,-0.000022,  48.813
    19.8,0.000021,-0.000001,0.003375,-0.000022,  48.814
    20.0,0.000023,0.000001,0.003427,-0.000044,  48.816
    20.2,0.000014,0.000005,0.003494,-0.000022,  48.812
    20.4,0.000017,0.000005,0.003571,-0.000022,  48.816
    20.6,0.000017,0.000007,0.003623,-0.000044,  48.815
    20.8,0.000019,0.000008,0.003654,-0.000022,  48.818
    21.0,0.000022,0.000011,0.003679,-0.000022,  48.835
    21.2,0.000025,0.000012,0.003529,-0.000022,  48.831
    21.4,0.000034,0.000012,0.003297,-0.000057,  48.831
    21.6,0.000030,0.000015,0.002951,-0.000022,  48.835
    21.8,0.000036,0.000020,0.002894,-0.000022,  48.837
    22.0,0.000037,0.000017,0.002914,-0.000022,  48.834
    22.2,0.000031,0.000022,0.003034,-0.000022,  48.837
    22.4,0.000043,0.000025,0.003230,-0.000026,  48.836
    22.6,0.000043,0.000022,0.003329,-0.000029,  48.839
    22.8,0.000039,0.000027,0.003422,0.000012,  48.843
    23.0,0.000039,0.000027,0.003519,-0.000023,  48.838
    23.2,0.000039,0.000026,0.003405,-0.000010,  48.839
    23.4,0.000035,0.000026,0.003199,0.000006,  48.840
    23.6,0.000032,0.000028,0.002889,-0.000003,  48.836
    23.8,0.000039,0.000025,0.002758,-0.000026,  48.836
    24.0,0.000035,0.000025,0.002691,0.000022,  48.840
    24.2,0.000035,0.000023,0.002676,0.000035,  48.840
    24.4,0.000044,0.000023,0.002738,0.000013,  48.839
    24.6,0.000040,0.000023,0.002869,0.000013,  48.840
    24.8,0.000040,0.000019,0.003045,0.000026,  48.836
    25.0,0.000043,0.000021,0.003086,0.000003,  48.840
    25.2,0.000043,0.000019,0.003075,-0.000022,  48.840
    25.4,0.000040,0.000019,0.003018,-0.000022,  48.837
    25.6,0.000038,0.000023,0.002919,-0.000044,  48.840
    25.8,0.000038,0.000021,0.002753,-0.000009,  48.840
    26.0,0.000035,0.000025,0.002542,-0.000009,  48.840
    26.2,0.000030,0.000025,0.002474,-0.000032,  48.836
    26.4,0.000032,0.000020,0.002465,0.000003,  48.841
    26.6,0.000035,0.000022,0.002497,0.000003,  48.844
    26.8,0.000035,0.000025,0.002615,-0.000019,  48.842
    27.0,0.000038,0.000020,0.002787,0.000003,  48.841
    27.2,0.000038,0.000025,0.003025,0.000003,  48.846
    27.4,0.000038,0.000027,0.003195,-0.000019,  48.846
    27.6,0.000034,0.000023,0.003350,0.000003,  48.846
    27.8,0.000034,0.000024,0.003495,0.000003,  48.849
    28.0,0.000034,0.000025,0.003618,-0.000019,  48.851
    28.2,0.000034,0.000023,0.003722,0.000003,  48.850
    28.4,0.000036,0.000019,0.003810,0.000003,  48.851
    28.6,0.000036,0.000021,0.003831,-0.000019,  48.852
    28.8,0.000040,0.000016,0.003780,0.000003,  48.850
    29.0,0.000049,0.000019,0.003699,0.000003,  48.851
    29.2,0.000047,0.000017,0.003694,-0.000019,  48.851
    29.4,0.000040,0.000011,0.003709,0.000003,  48.850
    29.6,0.000043,0.000016,0.003724,0.000003,  48.855
    29.8,0.000043,0.000019,0.003724,-0.000019,  48.853
    30.0,0.000047,0.000018,0.003724,0.000003,  48.855
    30.2,0.000043,0.000019,0.003709,0.000003,  48.859
    30.4,0.000047,0.000023,0.003761,0.000016,  48.857
    30.6,0.000051,0.000018,0.003837,-0.000044,  48.857
    30.8,0.000047,0.000021,0.003941,-0.000009,  48.857
    31.0,0.000051,0.000021,0.003816,-0.000009,  48.859
    31.2,0.000051,0.000015,0.003598,-0.000009,  48.859
    31.4,0.000047,0.000019,0.003294,-0.000009,  48.863
    31.6,0.000044,0.000019,0.003257,-0.000009,  48.860
    31.8,0.000044,0.000019,0.003320,-0.000044,  48.861
    32.0,0.000040,0.000023,0.003464,-0.000009,  48.860
    32.2,0.000047,0.000023,0.003691,-0.000009,  48.862
    32.4,0.000053,0.000023,0.003576,-0.000044,  48.862
    32.6,0.000049,0.000025,0.003395,-0.000009,  48.864
    32.8,0.000056,0.000022,0.003153,-0.000009,  48.863
    33.0,0.000053,0.000024,0.003024,-0.000044,  48.862
    33.2,0.000049,0.000024,0.002931,-0.000009,  48.864
    33.4,0.000053,0.000026,0.002859,-0.000009,  48.867
    33.6,0.000057,0.000023,0.002787,-0.000044,  48.868
    33.8,0.000053,0.000023,0.002741,-0.000009,  48.868
    34.0,0.000051,0.000025,0.002700,-0.000009,  48.865
    34.2,0.000051,0.000030,0.002777,-0.000044,  48.866
    34.4,0.000047,0.000025,0.002917,-0.000009,  48.866
    34.6,0.000051,0.000032,0.003125,-0.000009,  48.865
    34.8,0.000048,0.000028,0.003125,-0.000044,  48.866
    35.0,0.000044,0.000026,0.003047,-0.000009,  48.865
    35.2,0.000051,0.000031,0.002897,-0.000009,  48.862
    35.4,0.000051,0.000029,0.002928,-0.000044,  48.864
    35.6,0.000047,0.000023,0.003017,-0.000009,  48.862
    35.8,0.000051,0.000030,0.003152,-0.000009,  48.862
    36.0,0.000054,0.000029,0.003260,-0.000044,  48.861
    36.2,0.000051,0.000028,0.003379,-0.000009,  48.861
    36.4,0.000051,0.000025,0.003497,-0.000009,  48.861
    36.6,0.000057,0.000026,0.003555,-0.000044,  48.858
    36.8,0.000053,0.000028,0.003566,-0.000009,  48.867
    37.0,0.000053,0.000030,0.003531,-0.000009,  48.861
    37.2,0.000062,0.000032,0.003489,-0.000044,  48.863
    37.4,0.000056,0.000034,0.003412,-0.000009,  48.860
    37.6,0.000056,0.000034,0.003292,-0.000009,  48.864
    37.8,0.000062,0.000036,0.003193,-0.000044,  48.859
    38.0,0.000062,0.000030,0.003079,-0.000009,  48.857
    38.2,0.000062,0.000034,0.002950,-0.000009,  48.861
    38.4,0.000058,0.000039,0.002944,-0.000044,  48.862
    38.6,0.000065,0.000030,0.003002,-0.000009,  48.862
    38.8,0.000058,0.000038,0.003099,-0.000009,  48.862
    39.0,0.000061,0.000038,0.003160,-0.000044,  48.865
    39.2,0.000068,0.000036,0.003254,-0.000009,  48.863
    39.4,0.000069,0.000038,0.003342,-0.000009,  48.861
    39.6,0.000076,0.000040,0.003394,-0.000044,  48.861
    39.8,0.000083,0.000037,0.003441,-0.000009,  48.865
    40.0,0.000083,0.000042,0.003467,-0.000009,  48.865
    40.2,0.000081,0.000046,0.003467,0.000003,  48.859
    40.4,0.000083,0.000044,0.003435,-0.000009,  48.867
    40.6,0.000079,0.000044,0.003388,0.000026,  48.863
    40.8,0.000073,0.000039,0.003330,0.000026,  48.866
    41.0,0.000082,0.000032,0.003253,0.000039,  48.862
    41.2,0.000084,0.000038,0.003149,0.000039,  48.863
    41.4,0.000087,0.000036,0.003061,0.000039,  48.868
    41.6,0.000090,0.000034,0.002990,0.000051,  48.864
    41.8,0.000092,0.000036,0.002881,0.000039,  48.868
    42.0,0.000086,0.000035,0.002794,0.000039,  48.863
    42.2,0.000080,0.000032,0.002753,0.000051,  48.861
    42.4,0.000080,0.000037,0.002701,0.000039,  48.866
    42.6,0.000074,0.000037,0.002675,0.000039,  48.865
    42.8,0.000078,0.000038,0.002603,0.000039,  48.867
    43.0,0.000069,0.000040,0.002510,0.000026,  48.864
    43.2,0.000069,0.000038,0.002386,0.000026,  48.864
    43.4,0.000069,0.000038,0.002225,0.000039,  48.867
    43.6,0.000060,0.000035,0.002018,0.000039,  48.867
    43.8,0.000066,0.000037,0.001776,0.000039,  48.866
    44.0,0.000069,0.000034,0.001765,0.000051,  48.869
    44.2,0.000062,0.000038,0.001847,0.000039,  48.870
    44.4,0.000069,0.000040,0.002039,0.000039,  48.864
    44.6,0.000069,0.000042,0.002256,0.000051,  48.866
    44.8,0.000062,0.000037,0.002529,0.000039,  48.869
    45.0,0.000066,0.000037,0.002859,0.000039,  48.870
    45.2,0.000064,0.000038,0.003030,0.000051,  48.867
    45.4,0.000066,0.000038,0.003139,0.000039,  48.867
    45.6,0.000064,0.000038,0.003186,0.000039,  48.869
    45.8,0.000067,0.000038,0.003165,0.000051,  48.871
    46.0,0.000070,0.000040,0.003071,0.000039,  48.873
    46.2,0.000064,0.000036,0.002926,0.000039,  48.872
    46.4,0.000067,0.000032,0.002926,0.000051,  48.871
    46.6,0.000070,0.000034,0.002967,0.000039,  48.869
    46.8,0.000064,0.000034,0.003055,0.000039,  48.873
    47.0,0.000067,0.000034,0.003096,0.000051,  48.872
    47.2,0.000070,0.000033,0.003133,0.000039,  48.870
    47.4,0.000064,0.000037,0.003174,0.000039,  48.873
    47.6,0.000067,0.000036,0.003215,0.000051,  48.872
    47.8,0.000067,0.000034,0.003247,0.000039,  48.873
    48.0,0.000070,0.000040,0.003279,0.000039,  48.872
    48.2,0.000067,0.000038,0.003077,0.000051,  48.869
    48.4,0.000067,0.000034,0.002746,0.000039,  48.871
    48.6,0.000061,0.000036,0.002285,0.000039,  48.873
    48.8,0.000061,0.000034,0.002315,0.000039,  48.877
    49.0,0.000058,0.000029,0.002527,0.000026,  48.875
    49.2,0.000054,0.000029,0.002905,0.000026,  48.872
    49.4,0.000061,0.000032,0.002920,0.000026,  48.873
    49.6,0.000061,0.000027,0.002837,0.000026,  48.871
    49.8,0.000057,0.000027,0.002667,0.000026,  48.879
    50.0,0.000064,0.000032,0.002605,0.000026,  48.874
    50.2,0.000061,0.000027,0.002568,0.000026,  48.877
    50.4,0.000057,0.000025,0.002532,0.000026,  48.878
    50.6,0.000064,0.000028,0.002541,0.000039,  48.876
    50.8,0.000061,0.000023,0.002599,0.000026,  48.878
    51.0,0.000057,0.000023,0.002665,0.000026,  48.875
    51.2,0.000064,0.000028,0.002634,0.000026,  48.873
    51.4,0.000061,0.000024,0.002578,0.000026,  48.878
    51.6,0.000057,0.000025,0.002464,0.000026,  48.881
    51.8,0.000064,0.000033,0.002535,0.000026,  48.880
    52.0,0.000064,0.000031,0.002673,0.000026,  48.879
    52.2,0.000060,0.000030,0.002895,0.000026,  48.881
    52.4,0.000066,0.000038,0.003184,0.000026,  48.881
    52.6,0.000066,0.000035,0.003262,0.000039,  48.882
    52.8,0.000062,0.000032,0.003304,0.000039,  48.876
    53.0,0.000066,0.000033,0.003322,0.000039,  48.874
    53.2,0.000064,0.000030,0.003354,0.000051,  48.878
    53.4,0.000066,0.000028,0.003364,0.000039,  48.874
    53.6,0.000064,0.000033,0.003364,0.000039,  48.875
    53.8,0.000070,0.000033,0.003276,0.000051,  48.875
    54.0,0.000073,0.000033,0.003136,0.000039,  48.875
    54.2,0.000064,0.000033,0.002928,0.000039,  48.878
    54.4,0.000070,0.000031,0.002959,0.000051,  48.880
    54.6,0.000073,0.000035,0.003094,0.000039,  48.877
    54.8,0.000064,0.000029,0.003301,0.000039,  48.881
    55.0,0.000070,0.000033,0.003249,0.000051,  48.880
    55.2,0.000073,0.000031,0.003104,0.000039,  48.892
    55.4,0.000064,0.000035,0.002857,0.000039,  46.553
    55.6,0.000070,0.000035,0.002889,0.000051,  48.575
    55.8,0.000073,0.000033,0.002981,0.000039,  48.834
    56.0,0.000064,0.000032,0.003168,0.000039,  48.870
    56.2,0.000067,0.000034,0.003291,0.000051,  48.870
    56.4,0.000070,0.000031,0.003415,0.000039,  48.872
    56.6,0.000064,0.000031,0.003553,0.000039,  48.870
    56.8,0.000067,0.000032,0.003528,0.000051,  48.876
    57.0,0.000070,0.000029,0.003419,0.000039,  48.871
    57.2,0.000064,0.000031,0.003223,0.000051,  48.872
    57.4,0.000070,0.000038,0.003275,0.000051,  48.875
    57.6,0.000075,0.000035,0.003409,0.000051,  48.874
    57.8,0.000078,0.000037,0.003599,0.000064,  48.873
    58.0,0.000087,0.000044,0.003645,0.000051,  48.874
    58.2,0.000090,0.000043,0.003656,0.000051,  48.875
    58.4,0.000096,0.000042,0.003631,0.000064,  48.874
    58.6,0.000090,0.000046,0.003620,0.000051,  48.870
    58.8,0.000087,0.000043,0.003590,0.000051,  48.868
    59.0,0.000087,0.000048,0.003565,0.000064,  48.873
    59.2,0.000078,0.000047,0.003332,0.000051,  48.870
    59.4,0.000078,0.000045,0.002981,0.000051,  48.871
    59.6,0.000078,0.000052,0.002517,0.000064,  48.870
    59.8,0.000074,0.000055,0.002414,0.000051,  48.866
    60.0,0.000083,0.000055,0.002435,0.000051,  48.868
    60.2,0.000083,0.000061,0.002564,0.000051,  48.870
    60.4,0.000083,0.000064,0.002547,0.000077,  48.868
    60.6,0.000090,0.000068,0.002521,0.000064,  48.868
    60.8,0.000092,0.000068,0.002491,0.000064,  48.863
    61.0,0.000097,0.000068,0.002594,0.000064,  48.865
    61.2,0.000103,0.000070,0.002734,0.000064,  48.865
    61.4,0.000105,0.000066,0.002941,0.000064,  48.865
    61.6,0.000105,0.000068,0.003045,0.000077,  48.863
    61.8,0.000103,0.000068,0.003143,0.000077,  48.865
    62.0,0.000105,0.000062,0.003183,0.000064,  48.858
    62.2,0.000103,0.000061,0.003224,0.000077,  48.858
    62.4,0.000097,0.000061,0.003307,0.000064,  48.864
    62.6,0.000100,0.000063,0.003389,0.000051,  48.863
    62.8,0.000100,0.000065,0.003494,0.000064,  48.863
    63.0,0.000097,0.000065,0.003462,0.000051,  48.860
    63.2,0.000100,0.000067,0.003380,0.000051,  48.863
    63.4,0.000103,0.000065,0.003235,0.000064,  48.858
    63.6,0.000103,0.000065,0.003224,0.000051,  48.860
    63.8,0.000105,0.000065,0.003268,0.000051,  48.861
    64.0,0.000105,0.000066,0.003332,0.000064,  48.860
    64.2,0.000103,0.000070,0.003181,0.000064,  48.860
    64.4,0.000105,0.000068,0.002943,0.000064,  48.857
    64.6,0.000105,0.000072,0.002616,0.000077,  48.859
    64.8,0.000105,0.000072,0.002471,0.000077,  48.857
    65.0,0.000105,0.000071,0.002389,0.000064,  48.856
    65.2,0.000105,0.000072,0.002348,0.000077,  48.858
    65.4,0.000109,0.000071,0.002507,0.000077,  48.857
    65.6,0.000114,0.000071,0.002787,0.000064,  48.857
    65.8,0.000117,0.000080,0.003195,0.000077,  48.850
    66.0,0.000123,0.000085,0.003366,0.000077,  48.852
    66.2,0.000126,0.000081,0.003464,0.000064,  48.855
    66.4,0.000126,0.000084,0.003511,0.000077,  48.849
    66.6,0.000121,0.000083,0.003460,0.000077,  48.854
    66.8,0.000118,0.000081,0.003315,0.000064,  48.849
    67.0,0.000118,0.000081,0.003077,0.000077,  48.852
    67.2,0.000118,0.000081,0.002978,0.000077,  48.849
    67.4,0.000116,0.000081,0.002917,0.000064,  48.850
    67.6,0.000116,0.000079,0.002855,0.000077,  48.847
    67.8,0.000116,0.000077,0.002911,0.000077,  48.848
    68.0,0.000113,0.000077,0.003052,0.000064,  48.848
    68.2,0.000109,0.000077,0.003249,0.000077,  48.846
    68.4,0.000113,0.000077,0.003338,0.000077,  48.848
    68.6,0.000116,0.000073,0.003415,0.000064,  48.842
    68.8,0.000109,0.000072,0.003456,0.000077,  48.843
    69.0,0.000113,0.000069,0.003353,0.000077,  48.844
    69.2,0.000108,0.000069,0.003146,0.000064,  48.845
    69.4,0.000110,0.000068,0.002845,0.000077,  48.844
    69.6,0.000108,0.000071,0.002747,0.000077,  48.841
    69.8,0.000108,0.000073,0.002695,0.000064,  48.836
    70.0,0.000110,0.000071,0.002691,0.000064,  48.839
    70.2,0.000110,0.000069,0.002777,0.000064,  48.836
    70.4,0.000113,0.000073,0.002958,0.000064,  48.835
    70.6,0.000116,0.000077,0.003222,0.000064,  48.836
    70.8,0.000113,0.000079,0.003342,0.000064,  48.830
    71.0,0.000113,0.000083,0.003399,0.000064,  48.831
    71.2,0.000116,0.000080,0.003452,0.000064,  48.832
    71.4,0.000113,0.000080,0.003441,0.000077,  48.833
    71.6,0.000113,0.000078,0.003487,0.000077,  48.835
    71.8,0.000116,0.000072,0.003549,0.000064,  48.830
    72.0,0.000113,0.000076,0.003606,0.000077,  48.832
    72.2,0.000113,0.000073,0.003501,0.000077,  48.833
    72.4,0.000116,0.000070,0.003305,0.000064,  48.826
    72.6,0.000113,0.000072,0.003025,0.000077,  48.833
    72.8,0.000113,0.000072,0.003030,0.000077,  48.829
    73.0,0.000116,0.000070,0.003134,0.000064,  48.825
    73.2,0.000113,0.000068,0.003321,0.000077,  48.825
    73.4,0.000113,0.000068,0.003274,0.000077,  48.824
    73.6,0.000116,0.000068,0.003160,0.000064,  48.823
    73.8,0.000113,0.000073,0.002958,0.000077,  48.821
    74.0,0.000113,0.000073,0.003025,0.000077,  48.820
    74.2,0.000116,0.000073,0.003185,0.000064,  48.821
    74.4,0.000113,0.000076,0.003438,0.000077,  48.817
    74.6,0.000113,0.000078,0.003537,0.000077,  48.817
    74.8,0.000116,0.000082,0.003589,0.000064,  48.806
    75.0,0.000116,0.000081,0.003610,0.000077,  48.807
    75.2,0.000116,0.000079,0.003537,0.000077,  48.811
    75.4,0.000118,0.000083,0.003408,0.000064,  48.809
    75.6,0.000118,0.000082,0.003212,0.000077,  48.809
    75.8,0.000116,0.000084,0.003248,0.000064,  48.802
    76.0,0.000118,0.000082,0.003341,0.000051,  48.801
    76.2,0.000118,0.000081,0.003513,0.000064,  48.802
    76.4,0.000116,0.000084,0.003601,0.000051,  48.799
    76.6,0.000118,0.000087,0.003679,0.000051,  48.796
    76.8,0.000118,0.000085,0.003724,0.000064,  48.776
    77.0,0.000118,0.000085,0.003466,0.000064,  48.778
    77.2,0.000118,0.000089,0.003041,0.000064,  48.779
    77.4,0.000112,0.000088,0.002431,0.000077,  48.775
    77.6,0.000118,0.000083,0.002422,0.000077,  48.774
    77.8,0.000116,0.000080,0.002598,0.000064,  48.767
    78.0,0.000109,0.000077,0.002970,0.000077,  48.770
    78.2,0.000118,0.000078,0.003125,0.000077,  48.766
    78.4,0.000114,0.000076,0.003254,0.000064,  48.763
    78.6,0.000117,0.000077,0.003368,0.000077,  48.769
    78.8,0.000110,0.000080,0.003310,0.000077,  48.765
    79.0,0.000114,0.000085,0.003145,0.000064,  48.760
    79.2,0.000114,0.000083,0.002897,0.000064,  48.761
    79.4,0.000108,0.000085,0.002622,0.000064,  48.762
    79.6,0.000114,0.000089,0.002277,0.000064,  48.760
    79.8,0.000112,0.000090,0.001869,0.000064,  48.759
    80.0,0.000105,0.000084,0.001673,0.000064,  48.759
    80.2,0.000103,0.000077,0.001538,0.000064,  48.759
    80.4,0.000103,0.000078,0.001482,0.000064,  48.759
    80.6,0.000103,0.000075,0.001559,0.000077,  48.757
    80.8,0.000109,0.000070,0.001729,0.000077,  48.754
    81.0,0.000109,0.000070,0.002007,0.000064,  48.758
    81.2,0.000106,0.000073,0.002390,0.000077,  48.756
    81.4,0.000105,0.000078,0.002638,0.000077,  48.758
    81.6,0.000105,0.000078,0.002911,0.000064,  48.756
    81.8,0.000108,0.000075,0.003195,0.000077,  48.762
    82.0,0.000105,0.000077,0.003314,0.000077,  48.758
    82.2,0.000105,0.000079,0.003350,0.000064,  48.757
    82.4,0.000105,0.000076,0.003315,0.000077,  48.759
    82.6,0.000102,0.000072,0.003294,0.000064,  48.758
    82.8,0.000102,0.000065,0.003236,0.000051,  48.759
    83.0,0.000102,0.000068,0.003138,0.000064,  48.758
    83.2,0.000102,0.000063,0.003039,0.000051,  48.759
    83.4,0.000102,0.000063,0.002930,0.000051,  48.757
    83.6,0.000100,0.000065,0.002806,0.000064,  48.763
    83.8,0.000097,0.000065,0.002904,0.000051,  48.757
    84.0,0.000095,0.000061,0.003089,0.000051,  48.760
    84.2,0.000095,0.000061,0.003389,0.000064,  48.761
    84.4,0.000092,0.000061,0.003502,0.000051,  48.765
    84.6,0.000092,0.000059,0.003573,0.000051,  48.759
    84.8,0.000089,0.000057,0.003599,0.000051,  48.762
    85.0,0.000089,0.000058,0.003386,0.000051,  48.759
    85.2,0.000092,0.000056,0.003029,0.000039,  48.765
    85.4,0.000089,0.000050,0.002523,0.000051,  48.762
    85.6,0.000087,0.000052,0.002476,0.000051,  48.766
    85.8,0.000089,0.000052,0.002569,0.000051,  48.762
    86.0,0.000089,0.000050,0.002822,0.000064,  48.765
    86.2,0.000089,0.000052,0.002926,0.000051,  48.763
    86.4,0.000092,0.000054,0.003020,0.000051,  48.764
    86.6,0.000089,0.000051,0.003108,0.000064,  48.763
    86.8,0.000089,0.000056,0.003216,0.000051,  48.768
    87.0,0.000089,0.000058,0.003345,0.000051,  48.769
    87.2,0.000092,0.000060,0.003485,0.000064,  48.769
    87.4,0.000092,0.000065,0.003500,0.000051,  48.769
    87.6,0.000098,0.000069,0.003475,0.000051,  48.766
    87.8,0.000101,0.000072,0.003403,0.000064,  48.772
    88.0,0.000101,0.000071,0.003409,0.000051,  48.771
    88.2,0.000101,0.000071,0.003388,0.000051,  48.772
    88.4,0.000101,0.000078,0.003377,0.000064,  48.775
    88.6,0.000101,0.000074,0.003386,0.000051,  48.778
    88.8,0.000101,0.000071,0.003412,0.000051,  48.776
    89.0,0.000104,0.000073,0.003438,0.000051,  48.778
    89.2,0.000106,0.000074,0.003406,0.000064,  48.781
    89.4,0.000106,0.000071,0.003365,0.000064,  48.778
    89.6,0.000109,0.000071,0.003277,0.000051,  48.780
    89.8,0.000112,0.000074,0.003256,0.000064,  48.779
    90.0,0.000106,0.000069,0.003272,0.000051,  48.782
    90.2,0.000106,0.000070,0.003283,0.000051,  48.781
    90.4,0.000109,0.000072,0.003289,0.000064,  48.786
    90.6,0.000106,0.000074,0.003289,0.000051,  48.784
    90.8,0.000106,0.000076,0.003289,0.000051,  48.782
    91.0,0.000109,0.000079,0.003284,0.000064,  48.784
    91.2,0.000106,0.000081,0.003345,0.000051,  48.782
    91.4,0.000109,0.000083,0.003443,0.000051,  48.785
    91.6,0.000114,0.000080,0.003566,0.000064,  48.785
    91.8,0.000117,0.000078,0.003581,0.000051,  48.786
    92.0,0.000119,0.000080,0.003566,0.000051,  48.790
    92.2,0.000119,0.000086,0.003494,0.000064,  48.789
    92.4,0.000119,0.000088,0.003266,0.000064,  48.789
    92.6,0.000122,0.000090,0.002956,0.000064,  48.792
    92.8,0.000119,0.000086,0.002543,0.000077,  48.792
    93.0,0.000119,0.000090,0.002522,0.000077,  48.791
    93.2,0.000122,0.000083,0.002672,0.000064,  48.792
    93.4,0.000117,0.000089,0.002973,0.000077,  48.798
    93.6,0.000121,0.000087,0.002952,0.000077,  48.796
    93.8,0.000117,0.000091,0.002859,0.000064,  48.789
    94.0,0.000117,0.000091,0.002657,0.000077,  48.795
    94.2,0.000123,0.000091,0.002693,0.000077,  48.795
    94.4,0.000119,0.000087,0.002797,0.000064,  48.794
    94.6,0.000119,0.000093,0.002957,0.000077,  48.793
    94.8,0.000123,0.000091,0.002916,0.000077,  48.795
    95.0,0.000119,0.000087,0.002786,0.000064,  48.795
    95.2,0.000122,0.000089,0.002584,0.000077,  48.797
    95.4,0.000131,0.000095,0.002393,0.000077,  48.796
    95.6,0.000130,0.000099,0.002161,0.000077,  48.794
    95.8,0.000132,0.000096,0.001893,0.000090,  48.795
    96.0,0.000144,0.000107,0.002037,0.000077,  48.793
    96.2,0.000143,0.000113,0.002357,0.000077,  48.794
    96.4,0.000143,0.000111,0.002858,0.000090,  48.792
    96.6,0.000149,0.000110,0.003034,0.000077,  48.795
    96.8,0.000152,0.000117,0.003138,0.000077,  48.797
    97.0,0.000155,0.000121,0.003161,0.000090,  48.799
    97.2,0.000161,0.000120,0.003301,0.000077,  48.800
    97.4,0.000161,0.000124,0.003451,0.000077,  48.801
    97.6,0.000164,0.000128,0.003622,0.000090,  48.797
    97.8,0.000164,0.000136,0.003710,0.000077,  48.799
    98.0,0.000166,0.000134,0.003763,0.000077,  48.799
    98.2,0.000165,0.000140,0.003775,0.000090,  48.798
    98.4,0.000177,0.000141,0.003594,0.000077,  48.800
    98.6,0.000177,0.000141,0.003315,0.000077,  48.801
    98.8,0.000176,0.000150,0.002902,0.000090,  48.803
    99.0,0.000178,0.000157,0.002700,0.000077,  48.798
    99.2,0.000181,0.000162,0.002551,0.000077,  48.799
    99.4,0.000180,0.000167,0.002454,0.000090,  48.799
    99.6,0.000185,0.000169,0.002490,0.000077,  48.797
    99.8,0.000194,0.000171,0.002620,0.000103,  48.794
   100.0,0.000193,0.000172,0.002833,0.000090,  48.794
   100.2,0.000204,0.000172,0.003004,0.000090,  48.798
   100.4,0.000214,0.000175,0.003186,0.000090,  48.795
   100.6,0.000212,0.000172,0.003363,0.000090,  48.796
   100.8,0.000224,0.000184,0.003493,0.000103,  48.798
   101.0,0.000227,0.000188,0.003609,0.000103,  48.798
   101.2,0.000228,0.000190,0.003693,0.000090,  48.798
   101.4,0.000242,0.000193,0.003742,0.000103,  48.798
   101.6,0.000253,0.000194,0.003743,0.000103,  48.797
   101.8,0.000257,0.000202,0.003714,0.000090,  48.801
   102.0,0.000271,0.000209,0.003642,0.000103,  48.797
   102.2,0.000276,0.000212,0.003623,0.000103,  48.793
   102.4,0.000283,0.000221,0.003605,0.000090,  48.798
   102.6,0.000297,0.000226,0.003586,0.000103,  48.803
   102.8,0.000312,0.000232,0.003656,0.000090,  48.798
   103.0,0.000318,0.000237,0.003774,0.000077,  48.802
   103.2,0.000331,0.000245,0.003906,0.000090,  48.802
   103.4,0.000351,0.000250,0.004100,0.000077,  48.800
   103.6,0.000360,0.000258,0.004342,0.000077,  48.803
   103.8,0.000376,0.000266,0.004625,0.000090,  48.803
   104.0,0.000403,0.000276,0.004888,0.000090,  48.801
   104.2,0.000415,0.000281,0.005168,0.000090,  48.800
   104.4,0.000440,0.000289,0.005459,0.000103,  48.802
   104.6,0.000462,0.000299,0.005812,0.000103,  48.802
   104.8,0.000480,0.000306,0.006180,0.000090,  48.805
   105.0,0.000512,0.000324,0.006592,0.000103,  48.826
   105.2,0.000536,0.000338,0.006779,0.000103,  48.822
   105.4,0.000556,0.000347,0.006858,0.000090,  48.827
   105.6,0.000591,0.000363,0.006848,0.000103,  48.829
   105.8,0.000622,0.000379,0.007063,0.000103,  48.826
   106.0,0.000647,0.000390,0.007358,0.000090,  48.825
   106.2,0.000688,0.000413,0.007717,0.000103,  48.826
   106.4,0.000722,0.000432,0.007992,0.000103,  48.826
   106.6,0.000755,0.000447,0.008245,0.000090,  48.827
   106.8,0.000801,0.000469,0.008496,0.000103,  48.829
   107.0,0.000838,0.000488,0.008929,0.000103,  48.829
   107.2,0.000873,0.000505,0.009459,0.000090,  48.829
   107.4,0.000927,0.000531,0.010048,0.000103,  48.832
   107.6,0.000974,0.000558,0.010579,0.000103,  48.833
   107.8,0.001019,0.000585,0.011123,0.000090,  48.830
   108.0,0.001057,0.000620,0.011679,0.000103,  48.831
   108.2,0.001099,0.000659,0.012324,0.000103,  48.832
   108.4,0.001138,0.000692,0.013036,0.000090,  48.838
   108.6,0.001196,0.000729,0.013802,0.000103,  48.836
   108.8,0.001259,0.000761,0.014485,0.000103,  48.835
   109.0,0.001328,0.000795,0.015149,0.000090,  48.838
   109.2,0.001389,0.000836,0.015798,0.000103,  48.837
   109.4,0.001463,0.000875,0.016288,0.000103,  48.836
   109.6,0.001543,0.000914,0.016687,0.000090,  48.839
   109.8,0.001615,0.000960,0.016985,0.000090,  48.839
   110.0,0.001697,0.001005,0.017557,0.000090,  48.836
   110.2,0.001788,0.001048,0.018206,0.000090,  48.835
   110.4,0.001868,0.001101,0.018933,0.000090,  48.834
   110.6,0.001957,0.001155,0.019866,0.000090,  48.833
   110.8,0.002059,0.001206,0.020938,0.000077,  48.838
   111.0,0.002147,0.001259,0.022149,0.000077,  48.836
   111.2,0.002247,0.001316,0.023111,0.000090,  48.835
   111.4,0.002347,0.001376,0.024019,0.000077,  48.834
   111.6,0.002449,0.001432,0.024862,0.000112,  48.837
   111.8,0.002566,0.001495,0.025646,0.000125,  48.833
   112.0,0.002683,0.001562,0.026574,0.000077,  48.832
   112.2,0.002798,0.001626,0.027534,0.000112,  48.833
   112.4,0.002927,0.001703,0.028513,0.000125,  48.832
   112.6,0.003065,0.001775,0.029611,0.000090,  48.832
   112.8,0.003193,0.001845,0.030778,0.000090,  48.832
   113.0,0.003335,0.001926,0.032011,0.000103,  48.831
   113.2,0.003478,0.002002,0.033253,0.000103,  48.831
   113.4,0.003617,0.002087,0.034549,0.000090,  48.825
   113.6,0.003772,0.002175,0.035878,0.000103,  48.828
   113.8,0.003925,0.002250,0.037393,0.000103,  48.827
   114.0,0.004077,0.002316,0.039017,0.000090,  48.827
   114.2,0.004241,0.002387,0.040769,0.000103,  48.824
   114.4,0.004410,0.002443,0.042435,0.000103,  48.821
   114.6,0.004573,0.002532,0.044102,0.000090,  48.826
   114.8,0.004745,0.002628,0.045793,0.000103,  48.819
   115.0,0.004927,0.002732,0.047362,0.000103,  48.821
   115.2,0.005103,0.002828,0.048873,0.000090,  48.820
   115.4,0.005289,0.002932,0.050312,0.000103,  48.820
   115.6,0.005481,0.003034,0.052015,0.000103,  48.819
   115.8,0.005671,0.003138,0.053839,0.000090,  48.819
   116.0,0.005870,0.003250,0.055736,0.000103,  48.817
   116.2,0.006081,0.003364,0.057707,0.000103,  48.817
   116.4,0.006292,0.003480,0.059778,0.000103,  48.816
   116.6,0.006522,0.003606,0.061939,0.000116,  48.816
   116.8,0.006760,0.003738,0.063963,0.000116,  48.815
   117.0,0.006983,0.003860,0.065960,0.000116,  48.812
   117.2,0.007221,0.003988,0.067952,0.000129,  48.816
   117.4,0.007450,0.004121,0.070278,0.000129,  48.814
   117.6,0.007652,0.004245,0.072773,0.000116,  48.816
   117.8,0.007838,0.004379,0.075421,0.000116,  48.811
   118.0,0.008018,0.004518,0.077851,0.000116,  48.809
   118.2,0.008178,0.004662,0.080256,0.000116,  48.810
   118.4,0.008418,0.004809,0.082627,0.000116,  48.812
   118.6,0.008680,0.004965,0.085109,0.000116,  48.807
   118.8,0.008969,0.005119,0.087599,0.000116,  48.807
   119.0,0.009233,0.005272,0.090141,0.000116,  48.810
   119.2,0.009515,0.005421,0.092758,0.000116,  48.807
   119.4,0.009793,0.005577,0.095417,0.000116,  48.807
   119.6,0.010072,0.005730,0.098127,0.000116,  48.806
   119.8,0.010354,0.005887,0.100834,0.000129,  48.804
   120.0,0.010645,0.006041,0.103551,0.000116,  48.803
   120.2,0.010935,0.006205,0.106286,0.000116,  48.805
   120.4,0.011221,0.006376,0.109171,0.000129,  48.798
   120.6,0.011526,0.006548,0.112123,0.000129,  48.783
   120.8,0.011841,0.006737,0.115148,0.000129,  48.782
   121.0,0.012162,0.006927,0.117606,0.000129,  48.780
   121.2,0.012500,0.007107,0.119840,0.000142,  48.781
   121.4,0.012823,0.007288,0.121805,0.000129,  48.778
   121.6,0.013144,0.007467,0.123504,0.000129,  48.781
   121.8,0.013460,0.007649,0.126393,0.000142,  48.782
   122.0,0.013790,0.007836,0.129623,0.000129,  48.778
   122.2,0.014119,0.008023,0.133181,0.000129,  48.778
   122.4,0.014455,0.008214,0.136529,0.000142,  48.779
   122.6,0.014798,0.008412,0.139909,0.000142,  48.780
   122.8,0.015156,0.008614,0.143361,0.000142,  48.783
   123.0,0.015520,0.008815,0.146781,0.000142,  48.774
   123.2,0.015881,0.009015,0.150204,0.000142,  48.779
   123.4,0.016248,0.009224,0.153638,0.000142,  48.779
   123.6,0.016622,0.009401,0.157013,0.000142,  48.780
   123.8,0.016980,0.009558,0.160351,0.000142,  48.775
   124.0,0.017343,0.009711,0.163656,0.000142,  48.776
   124.2,0.017708,0.009842,0.167160,0.000142,  48.779
   124.4,0.018076,0.010037,0.170712,0.000142,  48.779
   124.6,0.018456,0.010245,0.174345,0.000142,  48.779
   124.8,0.018834,0.010475,0.178014,0.000154,  48.775
   125.0,0.019224,0.010694,0.181707,0.000154,  48.776
   125.2,0.019636,0.010934,0.185448,0.000154,  48.774
   125.4,0.020050,0.011169,0.189279,0.000167,  48.775
   125.6,0.020451,0.011393,0.193175,0.000154,  48.778
   125.8,0.020849,0.011625,0.197111,0.000154,  48.779
   126.0,0.021249,0.011849,0.200832,0.000167,  48.779
   126.2,0.021654,0.012076,0.204457,0.000154,  48.780
   126.4,0.022056,0.012307,0.207983,0.000154,  48.779
   126.6,0.022468,0.012536,0.211922,0.000167,  48.783
   126.8,0.022887,0.012771,0.216029,0.000154,  48.782
   127.0,0.023307,0.013014,0.220304,0.000154,  48.778
   127.2,0.023733,0.013264,0.224446,0.000167,  48.778
   127.4,0.024096,0.013501,0.228587,0.000189,  48.783
   127.6,0.024434,0.013745,0.232719,0.000189,  48.781
   127.8,0.024739,0.013989,0.236625,0.000167,  48.779
   128.0,0.025023,0.014229,0.240389,0.000189,  48.778
   128.2,0.025410,0.014465,0.243999,0.000202,  48.782
   128.4,0.025830,0.014702,0.248008,0.000167,  48.780
   128.6,0.026281,0.014947,0.252137,0.000202,  48.782
   128.8,0.026705,0.015187,0.256365,0.000215,  48.783
   129.0,0.027130,0.015426,0.260548,0.000180,  48.789
   129.2,0.027553,0.015679,0.264762,0.000215,  48.787
   129.4,0.027994,0.015936,0.268976,0.000228,  48.783
   129.6,0.028450,0.016199,0.273157,0.000180,  48.786
   129.8,0.028904,0.016451,0.277313,0.000202,  48.784
   130.0,0.029341,0.016702,0.281458,0.000189,  48.784
   130.2,0.029781,0.016953,0.285758,0.000167,  48.786
   130.4,0.030213,0.017203,0.290122,0.000189,  48.786
   130.6,0.030648,0.017456,0.294573,0.000202,  48.784
   130.8,0.031086,0.017709,0.298305,0.000180,  48.788
   131.0,0.031534,0.017961,0.301717,0.000202,  48.784
   131.2,0.031982,0.018222,0.304754,0.000202,  48.782
   131.4,0.032419,0.018475,0.307468,0.000215,  48.783
   131.6,0.032871,0.018732,0.311228,0.000167,  48.783
   131.8,0.033321,0.018991,0.315233,0.000202,  48.782
   132.0,0.033762,0.019254,0.319478,0.000215,  48.785
   132.2,0.034213,0.019502,0.323430,0.000167,  48.778
   132.4,0.034647,0.019748,0.327345,0.000202,  48.779
   132.6,0.035066,0.019995,0.331228,0.000215,  48.782
   132.8,0.035487,0.020208,0.335337,0.000167,  48.781
   133.0,0.035911,0.020398,0.339542,0.000202,  48.782
   133.2,0.036326,0.020577,0.343841,0.000215,  48.782
   133.4,0.036754,0.020733,0.348389,0.000167,  48.786
   133.6,0.037194,0.020971,0.353093,0.000202,  48.782
   133.8,0.037635,0.021231,0.357963,0.000202,  48.780
   134.0,0.038102,0.021519,0.362380,0.000167,  48.779
   134.2,0.038537,0.021773,0.366636,0.000189,  48.780
   134.4,0.038960,0.022026,0.370717,0.000202,  48.781
   134.6,0.039388,0.022276,0.374793,0.000167,  48.779
   134.8,0.039813,0.022523,0.378780,0.000167,  48.782
   135.0,0.040226,0.022772,0.382669,0.000167,  48.779
   135.2,0.040643,0.023019,0.386879,0.000167,  48.783
   135.4,0.041055,0.023261,0.391205,0.000154,  48.781
   135.6,0.041457,0.023504,0.395657,0.000154,  48.774
   135.8,0.041862,0.023744,0.399752,0.000167,  48.780
   136.0,0.042272,0.023983,0.403697,0.000154,  48.778
   136.2,0.042678,0.024231,0.407497,0.000154,  48.781
   136.4,0.043098,0.024473,0.411434,0.000154,  48.776
   136.6,0.043440,0.024703,0.415368,0.000142,  48.775
   136.8,0.043740,0.024936,0.419277,0.000142,  48.774
   137.0,0.044022,0.025157,0.423177,0.000129,  48.773
   137.2,0.044260,0.025382,0.427029,0.000116,  48.770
   137.4,0.044610,0.025605,0.430803,0.000103,  48.766
   137.6,0.044991,0.025830,0.434576,0.000103,  48.768
   137.8,0.045401,0.026055,0.438336,0.000103,  48.763
   138.0,0.045788,0.026279,0.442053,0.000090,  48.761
   138.2,0.046175,0.026516,0.445760,0.000077,  48.761
   138.4,0.046560,0.026738,0.449421,0.000077,  48.756
   138.6,0.046936,0.026958,0.453085,0.000064,  48.754
   138.8,0.047304,0.027180,0.456677,0.000064,  48.754
   139.0,0.047670,0.027394,0.460251,0.000064,  48.745
   139.2,0.048036,0.027613,0.463774,0.000051,  48.745
   139.4,0.048399,0.027829,0.467178,0.000051,  48.739
   139.6,0.048763,0.028031,0.470453,0.000039,  48.739
   139.8,0.049111,0.028239,0.473676,0.000026,  48.732
   140.0,0.049449,0.028442,0.476654,0.000013,  48.724
   140.2,0.049775,0.028642,0.479445,0.000000,  48.725
   140.4,0.050110,0.028845,0.482114,-0.000013,  48.715
   140.6,0.050445,0.029051,0.484526,-0.000026,  48.712
   140.8,0.050775,0.029243,0.487601,-0.000039,  48.702
   141.0,0.051090,0.029422,0.490841,-0.000051,  48.695
   141.2,0.051393,0.029606,0.494203,-0.000051,  48.694
   141.4,0.051697,0.029792,0.497159,-0.000051,  48.684
   141.6,0.052013,0.029975,0.499986,-0.000077,  48.678
   141.8,0.052322,0.030159,0.502593,-0.000090,  48.670
   142.0,0.052645,0.030319,0.505688,-0.000103,  48.660
   142.2,0.052950,0.030457,0.508890,-0.000129,  48.636
   142.4,0.053246,0.030590,0.512268,-0.000141,  48.630
   142.6,0.053540,0.030701,0.515313,-0.000154,  48.615
   142.8,0.053824,0.030867,0.518176,-0.000167,  48.611
   143.0,0.054106,0.031034,0.520919,-0.000167,  48.601
   143.2,0.054379,0.031218,0.523417,-0.000180,  48.592
   143.4,0.054658,0.031381,0.525647,-0.000206,  48.579
   143.6,0.054935,0.031552,0.527634,-0.000219,  48.568
   143.8,0.055202,0.031710,0.530329,-0.000231,  48.557
   144.0,0.055464,0.031865,0.533281,-0.000257,  48.544
   144.2,0.055717,0.032023,0.536477,-0.000270,  48.533
   144.4,0.055962,0.032178,0.539217,-0.000283,  48.501
   144.6,0.056209,0.032334,0.541883,-0.000309,  48.491
   144.8,0.056451,0.032485,0.544436,-0.000321,  48.470
   145.0,0.056689,0.032644,0.546961,-0.000334,  48.455
   145.2,0.056922,0.032785,0.549465,-0.000360,  48.439
   145.4,0.057146,0.032915,0.551796,-0.000373,  48.425
   145.6,0.057361,0.033048,0.553854,-0.000399,  48.407
   145.8,0.057559,0.033186,0.555719,-0.000376,  48.371
   146.0,0.057735,0.033328,0.557361,-0.000376,  48.346
   146.2,0.057908,0.033471,0.559477,-0.000437,  48.332
   146.4,0.058064,0.033597,0.561700,-0.000428,  48.308
   146.6,0.058255,0.033724,0.564071,-0.000441,  48.284
   146.8,0.058468,0.033842,0.566216,-0.000488,  48.251
   147.0,0.058681,0.033964,0.568295,-0.000479,  48.226
   147.2,0.058885,0.034089,0.570383,-0.000492,  48.207
   147.4,0.059074,0.034218,0.572594,-0.000540,  48.182
   147.6,0.059269,0.034332,0.574817,-0.000530,  48.160
   147.8,0.059462,0.034453,0.577091,-0.000543,  48.116
   148.0,0.059642,0.034566,0.579143,-0.000578,  48.078
   148.2,0.059828,0.034673,0.581057,-0.000569,  48.060
   148.4,0.060015,0.034788,0.582819,-0.000582,  48.033
   148.6,0.060189,0.034895,0.584559,-0.000630,  47.991
   148.8,0.060376,0.034999,0.586283,-0.000607,  47.960
   149.0,0.060551,0.035112,0.587950,-0.000646,  47.917
   149.2,0.060716,0.035221,0.589390,-0.000659,  47.880
   149.4,0.060888,0.035325,0.590699,-0.000707,  47.846
   149.6,0.061054,0.035422,0.591883,-0.000697,  47.816
   149.8,0.061213,0.035522,0.592865,-0.000710,  47.781
   150.0,0.061376,0.035630,0.594421,-0.000771,  47.724
   150.2,0.061542,0.035742,0.596148,-0.000749,  47.693
   150.4,0.061712,0.035858,0.597972,-0.000762,  47.660
   150.6,0.061887,0.035955,0.599618,-0.000810,  47.598
   150.8,0.062050,0.036051,0.601247,-0.000787,  47.555
   151.0,0.062207,0.036133,0.602844,-0.000800,  47.493
   151.2,0.062365,0.036228,0.604303,-0.000861,  47.465
   151.4,0.062525,0.036330,0.605645,-0.000839,  47.417
   151.6,0.062682,0.036428,0.606900,-0.000839,  47.359
   151.8,0.062840,0.036511,0.608728,-0.000887,  47.314
   152.0,0.062997,0.036585,0.610840,-0.000877,  47.243
   152.2,0.063158,0.036655,0.613150,-0.000890,  47.206
   152.4,0.063315,0.036717,0.615011,-0.000925,  47.153
   152.6,0.063482,0.036806,0.616818,-0.000916,  47.088
   152.8,0.063652,0.036909,0.618519,-0.000916,  47.020
   153.0,0.063819,0.037013,0.620347,-0.000964,  46.962
   153.2,0.063986,0.037109,0.622112,-0.000941,  46.904
   153.4,0.064150,0.037205,0.623840,-0.000941,  46.852
   153.6,0.064311,0.037308,0.625326,-0.000976,  46.785
   153.8,0.064484,0.037405,0.626613,-0.000967,  46.726
   154.0,0.064654,0.037509,0.627742,-0.000967,  46.644
   154.2,0.064824,0.037618,0.629363,-0.001002,  46.602
   154.4,0.065019,0.037732,0.631030,-0.000980,  46.527
   154.6,0.065217,0.037858,0.632923,-0.000980,  46.466
   154.8,0.065424,0.037990,0.634954,-0.001015,  46.383
   155.0,0.065619,0.038103,0.637028,-0.000980,  46.294
   155.2,0.065808,0.038208,0.639251,-0.000967,  46.244
   155.4,0.065994,0.038311,0.641346,-0.001002,  46.165
   155.6,0.066164,0.038432,0.643418,-0.000954,  46.104
   155.8,0.066326,0.038560,0.645447,-0.000941,  46.018
   156.0,0.066475,0.038706,0.647416,-0.000964,  45.918
   156.2,0.066622,0.038841,0.649376,-0.000903,  45.855
   156.4,0.066836,0.038968,0.651263,-0.000890,  45.782
   156.6,0.067065,0.039107,0.653400,-0.000912,  45.693
   156.8,0.067323,0.039254,0.655684,-0.000864,  45.608
   157.0,0.067568,0.039412,0.658022,-0.000839,  45.507
   157.2,0.067810,0.039577,0.660686,-0.000848,  45.455
   157.4,0.068048,0.039737,0.663591,-0.000800,  45.358
   157.6,0.068306,0.039904,0.666614,-0.000787,  45.271
   157.8,0.068566,0.040068,0.669388,-0.000797,  45.180
   158.0,0.068833,0.040240,0.672136,-0.000749,  45.088
   158.2,0.069113,0.040411,0.674770,-0.000736,  45.017
   158.4,0.069405,0.040583,0.677358,-0.000745,  44.922
   158.6,0.069697,0.040763,0.679850,-0.000672,  44.830
   158.8,0.070010,0.040959,0.682210,-0.000633,  44.740
   159.0,0.070343,0.041162,0.684475,-0.000595,  44.631
   159.2,0.070691,0.041366,0.687662,-0.000578,  44.549
   159.4,0.071033,0.041583,0.691126,-0.000505,  44.463
   159.6,0.071373,0.041801,0.694936,-0.000453,  44.373
   159.8,0.071725,0.042023,0.698384,-0.000437,  44.278
   160.0,0.072093,0.042255,0.701872,-0.000363,  44.166
   160.2,0.072458,0.042488,0.705245,-0.000312,  44.094
   160.4,0.072827,0.042723,0.708148,-0.000296,  43.996
   160.6,0.073211,0.042963,0.710738,-0.000222,  43.901
   160.8,0.073605,0.043205,0.713076,-0.000158,  43.812
   161.0,0.074005,0.043460,0.716861,-0.000141,  43.712
   161.2,0.074416,0.043721,0.721216,-0.000068,  43.644
   161.4,0.074835,0.043987,0.726228,-0.000003,  43.553
   161.6,0.075265,0.044216,0.730895,0.000026,  43.461
   161.8,0.075695,0.044430,0.735614,0.000099,  43.365
   162.0,0.076129,0.044625,0.740503,0.000164,  43.256
   162.2,0.076569,0.044809,0.744812,0.000180,  43.190
   162.4,0.077016,0.045064,0.748851,0.000267,  43.103
   162.6,0.077461,0.045341,0.752612,0.000331,  43.017
   162.8,0.077915,0.045647,0.757445,0.000360,  42.944
   163.0,0.078398,0.045939,0.762667,0.000447,  42.846
   163.2,0.078894,0.046234,0.768171,0.000511,  42.782
   163.4,0.079403,0.046547,0.773347,0.000541,  42.701
   163.6,0.079897,0.046854,0.778528,0.000627,  42.625
   163.8,0.080392,0.047161,0.783593,0.000692,  42.552
   164.0,0.080878,0.047475,0.788600,0.000721,  42.472
   164.2,0.081377,0.047784,0.793428,0.000807,  42.418
   164.4,0.081879,0.048096,0.798130,0.000872,  42.343
   164.6,0.082382,0.048408,0.803071,0.000888,  42.290
   164.8,0.082813,0.048729,0.807945,0.000988,  42.225
   165.0,0.083216,0.049052,0.812736,0.001052,  42.147
   165.2,0.083581,0.049383,0.817993,0.001069,  42.110
   165.4,0.083912,0.049702,0.823362,0.001143,  42.058
   165.6,0.084376,0.050016,0.828911,0.001194,  42.011
   165.8,0.084888,0.050334,0.834055,0.001211,  41.957
   166.0,0.085433,0.050659,0.838854,0.001297,  41.917
   166.2,0.085925,0.050986,0.843534,0.001349,  41.882
   166.4,0.086426,0.051319,0.848551,0.001365,  41.847
   166.6,0.086919,0.051632,0.853608,0.001439,  41.801
   166.8,0.087396,0.051938,0.858701,0.001491,  41.782
   167.0,0.087870,0.052230,0.863798,0.001507,  41.756
   167.2,0.088342,0.052532,0.868721,0.001555,  41.731
   167.4,0.088821,0.052841,0.873787,0.001594,  41.713
   167.6,0.089309,0.053148,0.878600,0.001598,  41.700
   167.8,0.089802,0.053450,0.883157,0.001659,  41.693
   168.0,0.090272,0.053749,0.887619,0.001672,  41.683
   168.2,0.090740,0.054054,0.892190,0.001675,  41.681
   168.4,0.091192,0.054343,0.896556,0.001736,  41.682
   168.6,0.091629,0.054611,0.900888,0.001762,  41.690
   168.8,0.092066,0.054879,0.904672,0.001788,  41.691
   169.0,0.092481,0.055154,0.907973,0.001766,  41.707
   169.2,0.092892,0.055420,0.910962,0.001827,  41.716
   169.4,0.093308,0.055689,0.913454,0.001865,  41.734
   169.6,0.093707,0.055946,0.917332,0.001856,  41.748
   169.8,0.094101,0.056193,0.921409,0.001904,  41.773
   170.0,0.094498,0.056440,0.925785,0.001930,  41.817
   170.2,0.094879,0.056676,0.929514,0.001921,  41.838
   170.4,0.095241,0.056900,0.932927,0.001956,  41.873
   170.6,0.095587,0.057125,0.936191,0.001969,  41.919
   170.8,0.095920,0.057311,0.939559,0.001946,  41.957
   171.0,0.096237,0.057471,0.942676,0.001994,  42.017
   171.2,0.096541,0.057605,0.945637,0.002007,  42.053
   171.4,0.096836,0.057716,0.948537,0.001972,  42.109
   171.6,0.097131,0.057881,0.951185,0.002007,  42.156
   171.8,0.097429,0.058062,0.953590,0.002020,  42.223
   172.0,0.097727,0.058259,0.955906,0.001985,  42.280
   172.2,0.097990,0.058431,0.957870,0.002007,  42.338
   172.4,0.098243,0.058597,0.959753,0.001994,  42.415
   172.6,0.098476,0.058749,0.961884,0.001959,  42.473
   172.8,0.098700,0.058887,0.964020,0.001982,  42.546
   173.0,0.098913,0.059023,0.966246,0.001982,  42.637
   173.2,0.099111,0.059148,0.968374,0.001934,  42.697
   173.4,0.099302,0.059280,0.970599,0.001956,  42.776
   173.6,0.099483,0.059408,0.972725,0.001956,  42.851
   173.8,0.099657,0.059544,0.974413,0.001908,  42.940
   174.0,0.099829,0.059659,0.975839,0.001904,  43.036
   174.2,0.099984,0.059758,0.976783,0.001891,  43.105
   174.4,0.100126,0.059850,0.978369,0.001856,  43.195
   174.6,0.100244,0.059946,0.979937,0.001865,  43.272
   174.8,0.100350,0.060042,0.981499,0.001852,  43.355
   175.0,0.100436,0.060137,0.982788,0.001791,  43.469
   175.2,0.100502,0.060202,0.983889,0.001801,  43.539
   175.4,0.100597,0.060251,0.984695,0.001788,  43.630
   175.6,0.100693,0.060287,0.985406,0.001740,  43.721
   175.8,0.100785,0.060343,0.985831,0.001749,  43.817
   176.0,0.100852,0.060397,0.986166,0.001736,  43.930
   176.2,0.100908,0.060446,0.986766,0.001675,  43.996
   176.4,0.100961,0.060484,0.987270,0.001684,  44.083
   176.6,0.100998,0.060520,0.987758,0.001659,  44.184
   176.8,0.101044,0.060556,0.987962,0.001611,  44.274
   177.0,0.101080,0.060579,0.987980,0.001633,  44.392
   177.2,0.101113,0.060592,0.987799,0.001607,  44.463
   177.4,0.101136,0.060596,0.987890,0.001546,  44.562
   177.6,0.101153,0.060612,0.987974,0.001555,  44.661
   177.8,0.101166,0.060632,0.988143,0.001530,  44.753
   178.0,0.101166,0.060643,0.987939,0.001504,  44.866
   178.2,0.101146,0.060647,0.987740,0.001456,  44.940
   178.4,0.101140,0.060652,0.987361,0.001465,  45.019
   178.6,0.101126,0.060650,0.986784,0.001452,  45.113
   178.8,0.101106,0.060638,0.986106,0.001391,  45.210
   179.0,0.101074,0.060632,0.985232,0.001388,  45.318
   179.2,0.101040,0.060618,0.984169,0.001375,  45.388
   179.4,0.101001,0.060589,0.983650,0.001301,  45.479
   179.6,0.100951,0.060558,0.983305,0.001310,  45.553
   179.8,0.100895,0.060513,0.983049,0.001297,  45.642
   180.0,0.100845,0.060484,0.982710,0.001236,  45.754
   180.2,0.100786,0.060464,0.982063,0.001246,  45.823
   180.4,0.100720,0.060441,0.981327,0.001220,  45.904
   180.6,0.100651,0.060428,0.980605,0.001159,  45.978
   180.8,0.100578,0.060394,0.979682,0.001181,  46.066
   181.0,0.100499,0.060361,0.978573,0.001168,  46.169
   181.2,0.100416,0.060323,0.977110,0.001107,  46.235
   181.4,0.100334,0.060285,0.975470,0.001130,  46.299
   181.6,0.100245,0.060244,0.973564,0.001117,  46.382
   181.8,0.100149,0.060204,0.972273,0.001056,  46.459
   182.0,0.100053,0.060161,0.971264,0.001065,  46.537
   182.2,0.099954,0.060114,0.970436,0.001039,  46.602
   182.4,0.099855,0.060065,0.969160,0.000991,  46.667
   182.6,0.099757,0.060017,0.967613,0.001001,  46.737
   182.8,0.099651,0.059961,0.965901,0.000988,  46.808
   183.0,0.099556,0.059905,0.964718,0.000940,  46.875
   183.2,0.099450,0.059851,0.963424,0.000949,  46.937
   183.4,0.099341,0.059795,0.962212,0.000936,  46.989
   183.6,0.099236,0.059737,0.960582,0.000875,  47.056
   183.8,0.099140,0.059679,0.958688,0.000898,  47.111
   184.0,0.099052,0.059619,0.956536,0.000898,  47.185
   184.2,0.098960,0.059558,0.954661,0.000850,  47.241
   184.4,0.098887,0.059498,0.952711,0.000872,  47.293
   184.6,0.098769,0.059430,0.950765,0.000872,  47.340
   184.8,0.098631,0.059363,0.949148,0.000824,  47.402
   185.0,0.098493,0.059298,0.947700,0.000846,  47.456
   185.2,0.098364,0.059233,0.946424,0.000833,  47.500
   185.4,0.098243,0.059164,0.944823,0.000798,  47.547
   185.6,0.098115,0.059097,0.943054,0.000785,  47.601
   185.8,0.097990,0.059034,0.941213,0.000772,  47.640
   186.0,0.097859,0.058964,0.939465,0.000772,  47.692
   186.2,0.097724,0.058890,0.937456,0.000747,  47.732
   186.4,0.097596,0.058823,0.935378,0.000747,  47.772
   186.6,0.097462,0.058750,0.933508,0.000747,  47.805
   186.8,0.097317,0.058676,0.931659,0.000734,  47.860
   187.0,0.097183,0.058609,0.929835,0.000721,  47.899
   187.2,0.097049,0.058546,0.927949,0.000721,  47.920
   187.4,0.096905,0.058472,0.926094,0.000721,  47.969
   187.6,0.096764,0.058401,0.924059,0.000743,  47.997
   187.8,0.096626,0.058332,0.922098,0.000730,  48.026
   188.0,0.096489,0.058251,0.920075,0.000695,  48.072
   188.2,0.096342,0.058178,0.917900,0.000717,  48.096
   188.4,0.096198,0.058104,0.915729,0.000704,  48.124
   188.6,0.096057,0.058024,0.913736,0.000669,  48.149
   188.8,0.095904,0.057946,0.911592,0.000704,  48.186
   189.0,0.095757,0.057868,0.909539,0.000717,  48.220
   189.2,0.095607,0.057790,0.907726,0.000669,  48.234
   189.4,0.095453,0.057709,0.905751,0.000692,  48.254
   189.6,0.095303,0.057636,0.903941,0.000704,  48.275
   189.8,0.095160,0.057567,0.901983,0.000656,  48.308
   190.0,0.095003,0.057500,0.899866,0.000679,  48.333
   190.2,0.094847,0.057448,0.897688,0.000679,  48.346
   190.4,0.094693,0.057399,0.895462,0.000644,  48.362
   190.6,0.094537,0.057319,0.893089,0.000653,  48.381
   190.8,0.094381,0.057232,0.890665,0.000653,  48.396
   191.0,0.094234,0.057143,0.888620,0.000618,  48.427
   191.2,0.094075,0.057058,0.886486,0.000640,  48.442
   191.4,0.093922,0.056978,0.884591,0.000640,  48.456
   191.6,0.093769,0.056898,0.882408,0.000605,  48.469
   191.8,0.093610,0.056820,0.880087,0.000627,  48.483
   192.0,0.093461,0.056740,0.877718,0.000627,  48.496
   192.2,0.093318,0.056662,0.875209,0.000605,  48.505
   192.4,0.093155,0.056580,0.872637,0.000627,  48.516
   192.6,0.092993,0.056493,0.870020,0.000627,  48.542
   192.8,0.092837,0.056409,0.867902,0.000605,  48.555
   193.0,0.092665,0.056320,0.865919,0.000627,  48.564
   193.2,0.092494,0.056227,0.864075,0.000627,  48.571
   193.4,0.092322,0.056133,0.861850,0.000592,  48.580
   193.6,0.092176,0.056047,0.859286,0.000614,  48.589
   193.8,0.092043,0.055953,0.856528,0.000614,  48.595
   194.0,0.091933,0.055869,0.854381,0.000579,  48.606
   194.2,0.091836,0.055784,0.852307,0.000614,  48.610
   194.4,0.091678,0.055686,0.850437,0.000601,  48.621
   194.6,0.091516,0.055600,0.848257,0.000566,  48.628
   194.8,0.091344,0.055511,0.845895,0.000601,  48.633
   195.0,0.091170,0.055413,0.843485,0.000589,  48.638
   195.2,0.091002,0.055325,0.841289,0.000553,  48.645
   195.4,0.090831,0.055234,0.839038,0.000589,  48.666
   195.6,0.090653,0.055136,0.836804,0.000601,  48.673
   195.8,0.090489,0.055048,0.834570,0.000566,  48.675
   196.0,0.090324,0.054955,0.832270,0.000589,  48.682
   196.2,0.090150,0.054857,0.829988,0.000589,  48.681
   196.4,0.089986,0.054765,0.827577,0.000553,  48.692
   196.6,0.089815,0.054665,0.825038,0.000589,  48.696
   196.8,0.089634,0.054567,0.822519,0.000589,  48.697
   197.0,0.089467,0.054472,0.820369,0.000553,  48.702
   197.2,0.089284,0.054375,0.818450,0.000589,  48.709
   197.4,0.089100,0.054273,0.816545,0.000589,  48.708
   197.6,0.088923,0.054171,0.814860,0.000601,  48.707
   197.8,0.088740,0.054074,0.812662,0.000566,  48.718
   198.0,0.088551,0.053975,0.810333,0.000589,  48.717
   198.2,0.088374,0.053871,0.807943,0.000601,  48.721
   198.4,0.088188,0.053764,0.805283,0.000553,  48.725
   198.6,0.088002,0.053665,0.802470,0.000576,  48.721
   198.8,0.087829,0.053568,0.799494,0.000589,  48.725
   199.0,0.087655,0.053468,0.797061,0.000541,  48.728
   199.2,0.087469,0.053366,0.794701,0.000563,  48.729
   199.4,0.087293,0.053269,0.792591,0.000576,  48.735
   199.6,0.087104,0.053180,0.790480,0.000541,  48.737
   199.8,0.086916,0.053103,0.788437,0.000563,  48.739
   200.0,0.086740,0.053033,0.786449,0.000576,  48.741
   200.2,0.086554,0.052966,0.784360,0.000541,  48.738
   200.4,0.086369,0.052874,0.782102,0.000563,  48.742
   200.6,0.086193,0.052770,0.779918,0.000576,  48.748
   200.8,0.086021,0.052669,0.777522,0.000541,  48.745
   201.0,0.085832,0.052565,0.774850,0.000563,  48.747
   201.2,0.085644,0.052457,0.772094,0.000576,  48.750
   201.4,0.085462,0.052354,0.769792,0.000541,  48.752
   201.6,0.085261,0.052242,0.767546,0.000563,  48.752
   201.8,0.085064,0.052127,0.765421,0.000576,  48.750
   202.0,0.084863,0.052013,0.763240,0.000541,  48.752
   202.2,0.084659,0.051905,0.761075,0.000563,  48.754
   202.4,0.084465,0.051793,0.758854,0.000576,  48.755
   202.6,0.084277,0.051688,0.756553,0.000541,  48.757
   202.8,0.084112,0.051582,0.754109,0.000563,  48.756
   203.0,0.083959,0.051474,0.751578,0.000576,  48.760
   203.2,0.083826,0.051369,0.749215,0.000541,  48.757
   203.4,0.083715,0.051254,0.746807,0.000563,  48.761
   203.6,0.083527,0.051142,0.744406,0.000576,  48.760
   203.8,0.083331,0.051027,0.742174,0.000541,  48.760
   204.0,0.083115,0.050911,0.739948,0.000563,  48.757
   204.2,0.082912,0.050797,0.737778,0.000576,  48.764
   204.4,0.082718,0.050683,0.735335,0.000541,  48.768
   204.6,0.082529,0.050569,0.732708,0.000563,  48.764
   204.8,0.082323,0.050455,0.729890,0.000576,  48.767
   205.0,0.082120,0.050341,0.727480,0.000541,  48.764
   205.2,0.081921,0.050229,0.725116,0.000563,  48.768
   205.4,0.081715,0.050111,0.722919,0.000563,  48.765
   205.6,0.081525,0.049993,0.720727,0.000528,  48.768
   205.8,0.081330,0.049872,0.718485,0.000563,  48.767
   206.0,0.081118,0.049754,0.716315,0.000563,  48.765
   206.2,0.080919,0.049633,0.714336,0.000528,  48.769
   206.4,0.080708,0.049506,0.712487,0.000563,  48.765
   206.6,0.080493,0.049382,0.710766,0.000550,  48.770
   206.8,0.080285,0.049259,0.709123,0.000563,  48.774
   207.0,0.080077,0.049139,0.706921,0.000550,  48.773
   207.2,0.079866,0.049021,0.704516,0.000585,  48.770
   207.4,0.079662,0.048909,0.701960,0.000598,  48.772
   207.6,0.079467,0.048782,0.699624,0.000585,  48.770
   207.8,0.079253,0.048662,0.697260,0.000585,  48.774
   208.0,0.079045,0.048537,0.694902,0.000598,  48.770
   208.2,0.078835,0.048415,0.692379,0.000585,  48.772
   208.4,0.078625,0.048293,0.689787,0.000585,  48.769
   208.6,0.078418,0.048173,0.687074,0.000598,  48.771
   208.8,0.078211,0.048071,0.684289,0.000585,  48.768
   209.0,0.077997,0.047974,0.681440,0.000585,  48.769
   209.2,0.077775,0.047885,0.678566,0.000598,  48.773
   209.4,0.077565,0.047813,0.676183,0.000585,  48.784
   209.6,0.077349,0.047695,0.673889,0.000585,  48.784
   209.8,0.077139,0.047573,0.671769,0.000598,  48.785
   210.0,0.076933,0.047443,0.669491,0.000585,  48.782
   210.2,0.076711,0.047318,0.667140,0.000585,  48.787
   210.4,0.076492,0.047190,0.664753,0.000598,  48.785
   210.6,0.076264,0.047059,0.662512,0.000585,  48.784
   210.8,0.076046,0.046936,0.660234,0.000585,  48.787
   211.0,0.075827,0.046810,0.658016,0.000598,  48.786
   211.2,0.075615,0.046682,0.655809,0.000585,  48.787
   211.4,0.075403,0.046556,0.653518,0.000585,  48.786
   211.6,0.075179,0.046434,0.651252,0.000598,  48.786
   211.8,0.074967,0.046303,0.649107,0.000585,  48.783
   212.0,0.074753,0.046175,0.647014,0.000585,  48.784
   212.2,0.074528,0.046049,0.644971,0.000598,  48.788
   212.4,0.074314,0.045919,0.642776,0.000585,  48.787
   212.6,0.074128,0.045784,0.640472,0.000585,  48.784
   212.8,0.073957,0.045659,0.638061,0.000598,  48.787
   213.0,0.073792,0.045526,0.635736,0.000550,  48.786
   213.2,0.073656,0.045387,0.633384,0.000550,  48.784
   213.4,0.073448,0.045258,0.630922,0.000563,  48.785
   213.6,0.073221,0.045117,0.628695,0.000515,  48.784
   213.8,0.072973,0.044978,0.626556,0.000550,  48.782
   214.0,0.072753,0.044848,0.624510,0.000550,  48.786
   214.2,0.072537,0.044718,0.622359,0.000515,  48.786
   214.4,0.072330,0.044582,0.620142,0.000537,  48.787
   214.6,0.072107,0.044443,0.617942,0.000537,  48.787
   214.8,0.071872,0.044307,0.615628,0.000515,  48.787
   215.0,0.071647,0.044170,0.613210,0.000537,  48.784
   215.2,0.071418,0.044032,0.610730,0.000537,  48.785
   215.4,0.071183,0.043891,0.608791,0.000515,  48.789
   215.6,0.070958,0.043758,0.607097,0.000537,  48.794
   215.8,0.070730,0.043622,0.605622,0.000537,  48.789
   216.0,0.070493,0.043490,0.604394,0.000537,  48.789
   216.2,0.070271,0.043349,0.602235,0.000502,  48.787
   216.4,0.070043,0.043211,0.599859,0.000524,  48.788
   216.6,0.069803,0.043071,0.597264,0.000524,  48.787
   216.8,0.069572,0.042933,0.594556,0.000489,  48.792
   217.0,0.069345,0.042797,0.591613,0.000524,  48.795
   217.2,0.069118,0.042667,0.588482,0.000524,  48.793
   217.4,0.068893,0.042532,0.586026,0.000489,  48.794
   217.6,0.068663,0.042398,0.583791,0.000524,  48.793
   217.8,0.068433,0.042259,0.581737,0.000524,  48.795
   218.0,0.068203,0.042142,0.579694,0.000489,  48.792
   218.2,0.067980,0.042035,0.577727,0.000524,  48.795
   218.4,0.067753,0.041940,0.575921,0.000524,  48.794
   218.6,0.067530,0.041856,0.573674,0.000489,  48.793
   218.8,0.067300,0.041718,0.571267,0.000524,  48.792
   219.0,0.067062,0.041579,0.568669,0.000524,  48.793
   219.2,0.066820,0.041424,0.566416,0.000489,  48.796
   219.4,0.066588,0.041287,0.564233,0.000524,  48.794
   219.6,0.066356,0.041138,0.562011,0.000524,  48.793
   219.8,0.066124,0.041000,0.559754,0.000489,  48.799
   220.0,0.065896,0.040865,0.557514,0.000511,  48.796
   220.2,0.065667,0.040723,0.555190,0.000511,  48.795
   220.4,0.065432,0.040591,0.553094,0.000476,  48.795
   220.6,0.065201,0.040451,0.551108,0.000498,  48.800
   220.8,0.064973,0.040312,0.549151,0.000498,  48.802
   221.0,0.064739,0.040178,0.547083,0.000463,  48.798
   221.2,0.064511,0.040038,0.545005,0.000498,  48.803
   221.4,0.064277,0.039901,0.542913,0.000498,  48.800
   221.6,0.064046,0.039769,0.540770,0.000463,  48.803
   221.8,0.063846,0.039628,0.538559,0.000498,  48.802
   222.0,0.063667,0.039482,0.536329,0.000498,  48.797
   222.2,0.063503,0.039337,0.533978,0.000463,  48.794
   222.4,0.063355,0.039202,0.531478,0.000498,  48.803
   222.6,0.063136,0.039063,0.528881,0.000498,  48.802
   222.8,0.062916,0.038928,0.526771,0.000463,  48.806
   223.0,0.062673,0.038787,0.524818,0.000498,  48.807
   223.2,0.062444,0.038642,0.523053,0.000498,  48.806
   223.4,0.062205,0.038495,0.520790,0.000463,  48.800
   223.6,0.061974,0.038354,0.518355,0.000498,  48.803
   223.8,0.061738,0.038212,0.515721,0.000498,  48.803
   224.0,0.061503,0.038071,0.513623,0.000463,  48.803
   224.2,0.061264,0.037937,0.511647,0.000498,  48.808
   224.4,0.061019,0.037798,0.509798,0.000498,  48.808
   224.6,0.060790,0.037662,0.507833,0.000463,  48.806
   224.8,0.060561,0.037519,0.505803,0.000498,  48.800
   225.0,0.060323,0.037379,0.503755,0.000498,  48.801
   225.2,0.060091,0.037234,0.501880,0.000463,  48.802
   225.4,0.059866,0.037096,0.500102,0.000511,  48.801
   225.6,0.059640,0.036957,0.498344,0.000498,  48.799
   225.8,0.059415,0.036822,0.496651,0.000498,  48.803
   226.0,0.059187,0.036686,0.494495,0.000463,  48.805
   226.2,0.058959,0.036550,0.492166,0.000498,  48.799
   226.4,0.058728,0.036405,0.489682,0.000498,  48.800
   226.6,0.058494,0.036267,0.487459,0.000463,  48.798
   226.8,0.058266,0.036127,0.485317,0.000498,  48.804
   227.0,0.058039,0.035989,0.483218,0.000498,  48.803
   227.2,0.057811,0.035854,0.481117,0.000463,  48.799
   227.4,0.057578,0.035710,0.478995,0.000498,  48.803
   227.6,0.057345,0.035559,0.476883,0.000498,  48.801
   227.8,0.057106,0.035415,0.474750,0.000463,  48.798
   228.0,0.056876,0.035268,0.472528,0.000498,  48.797
   228.2,0.056649,0.035125,0.470267,0.000485,  48.796
   228.4,0.056428,0.035004,0.468179,0.000450,  48.796
   228.6,0.056201,0.034892,0.466200,0.000485,  48.796
   228.8,0.055966,0.034802,0.464217,0.000473,  48.794
   229.0,0.055728,0.034718,0.462164,0.000437,  48.798
   229.2,0.055498,0.034586,0.460102,0.000485,  48.792
   229.4,0.055266,0.034449,0.458001,0.000485,  48.794
   229.6,0.055034,0.034298,0.456164,0.000450,  48.796
   229.8,0.054808,0.034156,0.454376,0.000473,  48.795
   230.0,0.054580,0.034026,0.452709,0.000485,  48.794
   230.2,0.054351,0.033889,0.450851,0.000450,  48.795
   230.4,0.054123,0.033745,0.448924,0.000473,  48.791
   230.6,0.053897,0.033610,0.446917,0.000485,  48.790
   230.8,0.053663,0.033467,0.444861,0.000437,  48.790
   231.0,0.053438,0.033325,0.442744,0.000460,  48.796
   231.2,0.053216,0.033190,0.440546,0.000473,  48.793
   231.4,0.052994,0.033053,0.438480,0.000425,  48.796
   231.6,0.052763,0.032912,0.436361,0.000460,  48.796
   231.8,0.052526,0.032766,0.434321,0.000473,  48.795
   232.0,0.052287,0.032625,0.432340,0.000425,  48.796
   232.2,0.052089,0.032484,0.430362,0.000460,  48.796
   232.4,0.051915,0.032345,0.428438,0.000473,  48.796
   232.6,0.051758,0.032216,0.426534,0.000425,  48.796
   232.8,0.051620,0.032077,0.424610,0.000460,  48.798
   233.0,0.051404,0.031938,0.422728,0.000473,  48.797
   233.2,0.051183,0.031808,0.420662,0.000425,  48.799
   233.4,0.050935,0.031671,0.418480,0.000460,  48.796
   233.6,0.050712,0.031532,0.416202,0.000473,  48.800
   233.8,0.050482,0.031391,0.414119,0.000425,  48.801
   234.0,0.050261,0.031252,0.412067,0.000447,  48.801
   234.2,0.050038,0.031123,0.410052,0.000447,  48.801
   234.4,0.049808,0.030991,0.408041,0.000412,  48.802
   234.6,0.049592,0.030852,0.406012,0.000460,  48.803
   234.8,0.049371,0.030718,0.403987,0.000447,  48.803
   235.0,0.049145,0.030588,0.402384,0.000412,  48.800
   235.2,0.048928,0.030452,0.400982,0.000447,  48.804
   235.4,0.048712,0.030320,0.399821,0.000447,  48.802
   235.6,0.048495,0.030191,0.398809,0.000460,  48.806
   235.8,0.048285,0.030048,0.397140,0.000425,  48.803
   236.0,0.048066,0.029910,0.395321,0.000447,  48.806
   236.2,0.047837,0.029767,0.393332,0.000460,  48.808
   236.4,0.047604,0.029627,0.391405,0.000425,  48.805
   236.6,0.047394,0.029502,0.389409,0.000447,  48.807
   236.8,0.047181,0.029377,0.387351,0.000460,  48.808
   237.0,0.046964,0.029246,0.385553,0.000425,  48.809
   237.2,0.046745,0.029110,0.383853,0.000447,  48.810
   237.4,0.046526,0.028979,0.382242,0.000460,  48.811
   237.6,0.046305,0.028864,0.380393,0.000425,  48.811
   237.8,0.046080,0.028755,0.378458,0.000447,  48.812
   238.0,0.045867,0.028662,0.376386,0.000460,  48.811
   238.2,0.045655,0.028574,0.374563,0.000425,  48.809
   238.4,0.045433,0.028451,0.372809,0.000447,  48.814
   238.6,0.045215,0.028319,0.371107,0.000460,  48.815
   238.8,0.044998,0.028177,0.369305,0.000425,  48.810
   239.0,0.044786,0.028041,0.367413,0.000447,  48.811
   239.2,0.044577,0.027910,0.365535,0.000460,  48.812
   239.4,0.044368,0.027775,0.363768,0.000425,  48.814
   239.6,0.044159,0.027637,0.362009,0.000447,  48.816
   239.8,0.043953,0.027511,0.360287,0.000460,  48.817
   240.0,0.043745,0.027382,0.358476,0.000425,  48.815
   240.2,0.043537,0.027243,0.356630,0.000447,  48.814
   240.4,0.043320,0.027107,0.354738,0.000460,  48.816
   240.6,0.043100,0.026966,0.352790,0.000425,  48.811
   240.8,0.042901,0.026833,0.350744,0.000447,  48.815
   241.0,0.042699,0.026710,0.348632,0.000460,  48.813
   241.2,0.042496,0.026592,0.346618,0.000425,  48.810
   241.4,0.042320,0.026465,0.344597,0.000447,  48.815
   241.6,0.042149,0.026338,0.342546,0.000460,  48.815
   241.8,0.042005,0.026211,0.340682,0.000425,  48.812
   242.0,0.041864,0.026087,0.338848,0.000447,  48.813
   242.2,0.041676,0.025958,0.337085,0.000460,  48.812
   242.4,0.041469,0.025832,0.335527,0.000425,  48.813
   242.6,0.041253,0.025701,0.334070,0.000412,  48.815
   242.8,0.041045,0.025577,0.332735,0.000425,  48.810
   243.0,0.040835,0.025453,0.331215,0.000412,  48.813
   243.2,0.040619,0.025324,0.329637,0.000399,  48.815
   243.4,0.040418,0.025205,0.328033,0.000412,  48.812
   243.6,0.040220,0.025092,0.326550,0.000399,  48.808
   243.8,0.040027,0.024969,0.325038,0.000399,  48.813
   244.0,0.039835,0.024850,0.323553,0.000399,  48.814
   244.2,0.039637,0.024735,0.321964,0.000399,  48.810
   244.4,0.039439,0.024613,0.320327,0.000399,  48.806
   244.6,0.039238,0.024488,0.318604,0.000399,  48.814
   244.8,0.039032,0.024356,0.317106,0.000399,  48.815
   245.0,0.038826,0.024235,0.315691,0.000399,  48.814
   245.2,0.038622,0.024119,0.314336,0.000412,  48.814
   245.4,0.038440,0.023999,0.313078,0.000425,  48.815
   245.6,0.038263,0.023879,0.311529,0.000412,  48.815
   245.8,0.038062,0.023759,0.309915,0.000399,  48.813
   246.0,0.037877,0.023647,0.308216,0.000412,  48.816
   246.2,0.037683,0.023530,0.306624,0.000399,  48.816
   246.4,0.037488,0.023411,0.305022,0.000399,  48.818
   246.6,0.037300,0.023296,0.303441,0.000412,  48.816
   246.8,0.037108,0.023174,0.301872,0.000399,  48.816
   247.0,0.036908,0.023052,0.300309,0.000399,  48.819
   247.2,0.036711,0.022930,0.298778,0.000412,  48.817
   247.4,0.036515,0.022827,0.297190,0.000399,  48.814
   247.6,0.036321,0.022738,0.295581,0.000399,  48.816
   247.8,0.036139,0.022656,0.293942,0.000412,  48.814
   248.0,0.035963,0.022591,0.292422,0.000399,  48.819
   248.2,0.035777,0.022485,0.290941,0.000399,  48.820
   248.4,0.035595,0.022374,0.289446,0.000412,  48.820
   248.6,0.035423,0.022255,0.287850,0.000399,  48.820
   248.8,0.035232,0.022133,0.286226,0.000399,  48.823
   249.0,0.035041,0.022015,0.284512,0.000412,  48.824
   249.2,0.034852,0.021897,0.282947,0.000399,  48.822
   249.4,0.034661,0.021779,0.281421,0.000399,  48.818
   249.6,0.034482,0.021666,0.279907,0.000412,  48.827
   249.8,0.034301,0.021559,0.278318,0.000399,  48.826
   250.0,0.034119,0.021446,0.276715,0.000399,  48.824
   250.2,0.033935,0.021335,0.275077,0.000412,  48.823
   250.4,0.033751,0.021222,0.273587,0.000399,  48.821
   250.6,0.033596,0.021111,0.272163,0.000399,  48.822
   250.8,0.033448,0.020996,0.270763,0.000399,  48.818
   251.0,0.033321,0.020882,0.269241,0.000399,  48.827
   251.2,0.033202,0.020765,0.267652,0.000386,  48.827
   251.4,0.033033,0.020649,0.266015,0.000386,  48.826
   251.6,0.032849,0.020530,0.264548,0.000399,  48.828
   251.8,0.032654,0.020415,0.263119,0.000386,  48.825
   252.0,0.032476,0.020311,0.261752,0.000386,  48.826
   252.2,0.032301,0.020209,0.260410,0.000399,  48.829
   252.4,0.032124,0.020102,0.259091,0.000386,  48.827
   252.6,0.031952,0.020005,0.257821,0.000386,  48.826
   252.8,0.031780,0.019902,0.256421,0.000399,  48.831
   253.0,0.031617,0.019789,0.254999,0.000386,  48.832
   253.2,0.031436,0.019682,0.253506,0.000386,  48.830
   253.4,0.031262,0.019563,0.252087,0.000399,  48.834
   253.6,0.031081,0.019454,0.250685,0.000386,  48.830
   253.8,0.030913,0.019359,0.249288,0.000386,  48.833
   254.0,0.030750,0.019259,0.248113,0.000386,  48.832
   254.2,0.030587,0.019154,0.247034,0.000386,  48.833
   254.4,0.030418,0.019055,0.246056,0.000386,  48.834
   254.6,0.030247,0.018951,0.245191,0.000386,  48.837
   254.8,0.030079,0.018847,0.243922,0.000399,  48.837
   255.0,0.029907,0.018745,0.242528,0.000386,  48.836
   255.2,0.029741,0.018644,0.241040,0.000386,  48.837
   255.4,0.029582,0.018536,0.239717,0.000399,  48.834
   255.6,0.029411,0.018429,0.238428,0.000386,  48.838
   255.8,0.029246,0.018323,0.237162,0.000386,  48.837
   256.0,0.029082,0.018218,0.235880,0.000386,  48.836
   256.2,0.028913,0.018123,0.234614,0.000373,  48.837
   256.4,0.028760,0.018026,0.233358,0.000373,  48.832
   256.6,0.028600,0.017943,0.231907,0.000373,  48.841
   256.8,0.028437,0.017867,0.230383,0.000373,  48.837
   257.0,0.028290,0.017800,0.228771,0.000373,  48.838
   257.2,0.028133,0.017736,0.227407,0.000373,  48.838
   257.4,0.027968,0.017643,0.226100,0.000373,  48.839
   257.6,0.027812,0.017535,0.224892,0.000373,  48.836
   257.8,0.027645,0.017427,0.223645,0.000373,  48.836
   258.0,0.027482,0.017323,0.222403,0.000373,  48.838
   258.2,0.027332,0.017228,0.221175,0.000373,  48.837
   258.4,0.027176,0.017131,0.219997,0.000373,  48.835
   258.6,0.027013,0.017031,0.218840,0.000373,  48.835
   258.8,0.026861,0.016938,0.217703,0.000373,  48.834
   259.0,0.026702,0.016842,0.216436,0.000373,  48.832
   259.2,0.026545,0.016742,0.215116,0.000373,  48.836
   259.4,0.026401,0.016652,0.213772,0.000373,  48.832
   259.6,0.026251,0.016554,0.212347,0.000373,  48.835
   259.8,0.026095,0.016456,0.210847,0.000373,  48.830
   260.0,0.025948,0.016366,0.209291,0.000373,  48.830
   260.2,0.025790,0.016268,0.208072,0.000373,  48.827
   260.4,0.025662,0.016170,0.206985,0.000360,  48.827
   260.6,0.025545,0.016084,0.206002,0.000360,  48.827
   260.8,0.025433,0.015997,0.204842,0.000373,  48.826
   261.0,0.025345,0.015903,0.203675,0.000360,  48.829
   261.2,0.025205,0.015816,0.202467,0.000360,  48.826
   261.4,0.025058,0.015732,0.201228,0.000373,  48.829
   261.6,0.024909,0.015638,0.199965,0.000360,  48.830
   261.8,0.024759,0.015545,0.198661,0.000360,  48.826
   262.0,0.024624,0.015450,0.197385,0.000360,  48.827
   262.2,0.024480,0.015358,0.196095,0.000347,  48.821
   262.4,0.024329,0.015276,0.194827,0.000347,  48.827
   262.6,0.024194,0.015187,0.193800,0.000347,  48.824
   262.8,0.024053,0.015095,0.192855,0.000347,  48.828
   263.0,0.023908,0.015013,0.192042,0.000347,  48.826
   263.2,0.023771,0.014927,0.191016,0.000347,  48.825
   263.4,0.023624,0.014840,0.189891,0.000347,  48.823
   263.6,0.023482,0.014751,0.188727,0.000347,  48.823
   263.8,0.023351,0.014671,0.187710,0.000360,  48.827
   264.0,0.023219,0.014580,0.186751,0.000347,  48.824
   264.2,0.023071,0.014490,0.185825,0.000347,  48.820
   264.4,0.022931,0.014406,0.184946,0.000347,  48.822
   264.6,0.022791,0.014317,0.183838,0.000347,  48.825
   264.8,0.022646,0.014232,0.182659,0.000347,  48.822
   265.0,0.022508,0.014151,0.181397,0.000335,  48.823
   265.2,0.022380,0.014064,0.180380,0.000335,  48.824
   265.4,0.022241,0.013983,0.179423,0.000335,  48.823
   265.6,0.022106,0.013899,0.178551,0.000322,  48.824
   265.8,0.021977,0.013809,0.177519,0.000322,  48.824
   266.0,0.021839,0.013728,0.176454,0.000335,  48.822
   266.2,0.021709,0.013648,0.175344,0.000335,  48.825
   266.4,0.021583,0.013579,0.174252,0.000335,  48.825
   266.6,0.021449,0.013512,0.173165,0.000335,  48.824
   266.8,0.021327,0.013454,0.172071,0.000335,  48.824
   267.0,0.021209,0.013408,0.171091,0.000335,  48.822
   267.2,0.021082,0.013329,0.170154,0.000322,  48.827
   267.4,0.020946,0.013248,0.169259,0.000335,  48.824
   267.6,0.020819,0.013162,0.168151,0.000335,  48.823
   267.8,0.020692,0.013083,0.166933,0.000322,  48.820
   268.0,0.020568,0.013004,0.165635,0.000335,  48.823
   268.2,0.020438,0.012925,0.164595,0.000335,  48.822
   268.4,0.020311,0.012846,0.163646,0.000322,  48.822
   268.6,0.020194,0.012770,0.162749,0.000335,  48.821
   268.8,0.020068,0.012697,0.161904,0.000335,  48.827
   269.0,0.019943,0.012616,0.161108,0.000322,  48.822
   269.2,0.019829,0.012544,0.160375,0.000335,  48.823
   269.4,0.019708,0.012475,0.159500,0.000335,  48.827
   269.6,0.019584,0.012401,0.158583,0.000357,  48.826
   269.8,0.019470,0.012330,0.157626,0.000370,  48.819
   270.0,0.019350,0.012257,0.156653,0.000322,  48.825
   270.2,0.019248,0.012180,0.155652,0.000344,  48.820
   270.4,0.019158,0.012107,0.154641,0.000357,  48.824
   270.6,0.019067,0.012036,0.153554,0.000309,  48.822
   270.8,0.018997,0.011961,0.152438,0.000344,  48.826
   271.0,0.018883,0.011887,0.151282,0.000357,  48.826
   271.2,0.018768,0.011817,0.150341,0.000322,  48.823
   271.4,0.018649,0.011742,0.149474,0.000357,  48.825
   271.6,0.018528,0.011676,0.148699,0.000370,  48.820
   271.8,0.018420,0.011602,0.147859,0.000335,  48.825
   272.0,0.018305,0.011527,0.147028,0.000357,  48.823
   272.2,0.018184,0.011457,0.146193,0.000357,  48.821
   272.4,0.018075,0.011385,0.145313,0.000335,  48.825
   272.6,0.017961,0.011306,0.144432,0.000357,  48.822
   272.8,0.017840,0.011239,0.143508,0.000357,  48.827
   273.0,0.017737,0.011168,0.142593,0.000335,  48.827
   273.2,0.017625,0.011095,0.141643,0.000335,  48.828
   273.4,0.017510,0.011027,0.140709,0.000335,  48.827
   273.6,0.017407,0.010963,0.139726,0.000335,  48.827
   273.8,0.017298,0.010895,0.138860,0.000335,  48.826
   274.0,0.017182,0.010826,0.137998,0.000322,  48.823
   274.2,0.017080,0.010765,0.137163,0.000335,  48.832
   274.4,0.016971,0.010696,0.136473,0.000335,  48.829
   274.6,0.016858,0.010626,0.135846,0.000322,  48.829
   274.8,0.016759,0.010563,0.135289,0.000335,  48.832
   275.0,0.016658,0.010494,0.134564,0.000335,  48.831
   275.2,0.016548,0.010428,0.133821,0.000322,  48.830
   275.4,0.016451,0.010364,0.133035,0.000335,  48.832
   275.6,0.016345,0.010313,0.132192,0.000322,  48.834
   275.8,0.016245,0.010256,0.131326,0.000309,  48.836
   276.0,0.016147,0.010219,0.130412,0.000322,  48.836
   276.2,0.016049,0.010180,0.129633,0.000309,  48.837
   276.4,0.015940,0.010116,0.128919,0.000309,  48.836
   276.6,0.015835,0.010054,0.128202,0.000322,  48.838
   276.8,0.015727,0.009980,0.127472,0.000309,  48.838
   277.0,0.015623,0.009915,0.126771,0.000309,  48.835
   277.2,0.015526,0.009853,0.126052,0.000322,  48.841
   277.4,0.015432,0.009787,0.125273,0.000309,  48.841
   277.6,0.015337,0.009726,0.124471,0.000309,  48.842
   277.8,0.015232,0.009668,0.123620,0.000322,  48.844
   278.0,0.015138,0.009610,0.122736,0.000309,  48.844
   278.2,0.015036,0.009548,0.121801,0.000309,  48.843
   278.4,0.014939,0.009490,0.120817,0.000322,  48.840
   278.6,0.014841,0.009430,0.120098,0.000309,  48.847
   278.8,0.014742,0.009368,0.119495,0.000309,  48.847
   279.0,0.014657,0.009311,0.118993,0.000322,  48.848
   279.2,0.014565,0.009256,0.118296,0.000309,  48.848
   279.4,0.014486,0.009196,0.117542,0.000296,  48.850
   279.6,0.014416,0.009142,0.116739,0.000309,  48.854
   279.8,0.014342,0.009092,0.115853,0.000309,  48.852
   280.0,0.014291,0.009032,0.114893,0.000296,  48.858
   280.2,0.014201,0.008978,0.113871,0.000309,  48.858
   280.4,0.014109,0.008919,0.113184,0.000309,  48.855
   280.6,0.014018,0.008858,0.112616,0.000296,  48.860
   280.8,0.013922,0.008798,0.112202,0.000309,  48.862
   281.0,0.013837,0.008739,0.111579,0.000309,  48.860
   281.2,0.013747,0.008678,0.110942,0.000296,  48.859
   281.4,0.013655,0.008622,0.110244,0.000309,  48.861
   281.6,0.013565,0.008573,0.109566,0.000309,  48.862
   281.8,0.013479,0.008513,0.108882,0.000296,  48.864
   282.0,0.013386,0.008462,0.108178,0.000296,  48.860
   282.2,0.013300,0.008413,0.107497,0.000296,  48.868
   282.4,0.013220,0.008359,0.106832,0.000296,  48.865
   282.6,0.013129,0.008302,0.106155,0.000296,  48.864
   282.8,0.013046,0.008250,0.105474,0.000296,  48.863
   283.0,0.012969,0.008202,0.104788,0.000296,  48.863
   283.2,0.012878,0.008153,0.104099,0.000296,  48.862
   283.4,0.012795,0.008101,0.103403,0.000309,  48.864
   283.6,0.012718,0.008051,0.102797,0.000309,  48.867
   283.8,0.012633,0.007999,0.102220,0.000296,  48.866
   284.0,0.012549,0.007946,0.101665,0.000309,  48.868
   284.2,0.012472,0.007892,0.101164,0.000309,  48.867
   284.4,0.012385,0.007841,0.100691,0.000296,  48.866
   284.6,0.012302,0.007790,0.100258,0.000309,  48.867
   284.8,0.012224,0.007734,0.099664,0.000309,  48.866
   285.0,0.012137,0.007686,0.099008,0.000296,  48.866
   285.2,0.012056,0.007635,0.098273,0.000309,  48.871
   285.4,0.011979,0.007593,0.097688,0.000309,  48.868
   285.6,0.011899,0.007553,0.097136,0.000296,  48.866
   285.8,0.011821,0.007520,0.096606,0.000309,  48.870
   286.0,0.011750,0.007490,0.095921,0.000296,  48.873
   286.2,0.011675,0.007448,0.095183,0.000283,  48.874
   286.4,0.011598,0.007398,0.094399,0.000296,  48.875
   286.6,0.011532,0.007349,0.093798,0.000283,  48.875
   286.8,0.011457,0.007300,0.093264,0.000283,  48.873
   287.0,0.011375,0.007255,0.092797,0.000296,  48.871
   287.2,0.011304,0.007212,0.092172,0.000283,  48.877
   287.4,0.011231,0.007164,0.091495,0.000283,  48.878
   287.6,0.011147,0.007120,0.090759,0.000296,  48.877
   287.8,0.011081,0.007079,0.090181,0.000283,  48.880
   288.0,0.011004,0.007036,0.089612,0.000283,  48.878
   288.2,0.010925,0.006996,0.089101,0.000283,  48.881
   288.4,0.010855,0.006955,0.088526,0.000283,  48.879
   288.6,0.010782,0.006907,0.087926,0.000270,  48.881
   288.8,0.010709,0.006865,0.087320,0.000270,  48.875
   289.0,0.010646,0.006822,0.086760,0.000283,  48.882
   289.2,0.010570,0.006775,0.086208,0.000270,  48.884
   289.4,0.010503,0.006729,0.085663,0.000270,  48.883
   289.6,0.010437,0.006687,0.085204,0.000283,  48.880
   289.8,0.010378,0.006641,0.084790,0.000270,  48.880
   290.0,0.010324,0.006598,0.084391,0.000270,  48.883
   290.2,0.010267,0.006556,0.083687,0.000270,  48.882
   290.4,0.010221,0.006510,0.082847,0.000257,  48.885
   290.6,0.010153,0.006463,0.081867,0.000257,  48.901
   290.8,0.010089,0.006425,0.081263,0.000257,  48.898
   291.0,0.010028,0.006384,0.080750,0.000257,  48.901
   291.2,0.009957,0.006345,0.080378,0.000257,  48.901
   291.4,0.009897,0.006303,0.079942,0.000257,  48.901
   291.6,0.009833,0.006258,0.079527,0.000257,  48.900
   291.8,0.009763,0.006219,0.079131,0.000270,  48.901
   292.0,0.009698,0.006177,0.078709,0.000270,  48.900
   292.2,0.009638,0.006135,0.078269,0.000283,  48.900
   292.4,0.009567,0.006093,0.077815,0.000270,  48.901
   292.6,0.009503,0.006061,0.077261,0.000283,  48.899
   292.8,0.009445,0.006021,0.076657,0.000270,  48.903
   293.0,0.009377,0.005977,0.075984,0.000270,  48.902
   293.2,0.009316,0.005933,0.075533,0.000270,  48.903
   293.4,0.009261,0.005889,0.075171,0.000283,  48.897
   293.6,0.009192,0.005854,0.074884,0.000270,  48.904
   293.8,0.009131,0.005813,0.074666,0.000270,  48.903
   294.0,0.009076,0.005772,0.074129,0.000283,  48.901
   294.2,0.009008,0.005735,0.073517,0.000270,  48.905
   294.4,0.008946,0.005703,0.072824,0.000270,  48.899
   294.6,0.008885,0.005664,0.072219,0.000283,  48.902
   294.8,0.008822,0.005625,0.071597,0.000270,  48.901
   295.0,0.008770,0.005590,0.070957,0.000270,  48.900
   295.2,0.008711,0.005552,0.070568,0.000270,  48.902
   295.4,0.008649,0.005519,0.070310,0.000257,  48.903
   295.6,0.008599,0.005484,0.070145,0.000257,  48.901
   295.8,0.008543,0.005454,0.069732,0.000257,  48.901
   296.0,0.008478,0.005431,0.069263,0.000257,  48.902
   296.2,0.008425,0.005401,0.068726,0.000257,  48.902
   296.4,0.008364,0.005381,0.068184,0.000257,  48.901
   296.6,0.008301,0.005345,0.067605,0.000257,  48.901
   296.8,0.008252,0.005315,0.066983,0.000257,  48.902
   297.0,0.008198,0.005279,0.066591,0.000257,  48.899
   297.2,0.008141,0.005244,0.066285,0.000257,  48.900
   297.4,0.008092,0.005210,0.066085,0.000257,  48.899
   297.6,0.008038,0.005173,0.065638,0.000257,  48.901
   297.8,0.007979,0.005136,0.065117,0.000257,  48.898
   298.0,0.007932,0.005105,0.064506,0.000257,  48.897
   298.2,0.007876,0.005071,0.064091,0.000257,  48.899
   298.4,0.007816,0.005040,0.063714,0.000244,  48.901
   298.6,0.007769,0.005006,0.063391,0.000244,  48.898
   298.8,0.007716,0.004975,0.063112,0.000257,  48.898
   299.0,0.007670,0.004934,0.062851,0.000244,  48.895
   299.2,0.007630,0.004903,0.062645,0.000244,  48.899
   299.4,0.007584,0.004871,0.062342,0.000257,  48.896
   299.6,0.007556,0.004839,0.062009,0.000244,  48.900
   299.8,0.007501,0.004804,0.061657,0.000244,  48.898
   300.0,0.007451,0.004776,0.061287,0.000257,  48.895
   300.2,0.007401,0.004741,0.060870,0.000244,  48.897
   300.4,0.007347,0.004705,0.060446,0.000244,  48.896
   300.6,0.007303,0.004673,0.060150,0.000257,  48.897
   300.8,0.007252,0.004643,0.059891,0.000244,  48.892
   301.0,0.007198,0.004612,0.059687,0.000244,  48.888
   301.2,0.007156,0.004587,0.059282,0.000257,  48.885
   301.4,0.007106,0.004562,0.058769,0.000244,  48.889
   301.6,0.007051,0.004533,0.058179,0.000244,  48.889
   301.8,0.007012,0.004501,0.057782,0.000257,  48.894
   302.0,0.006968,0.004465,0.057451,0.000244,  48.890
   302.2,0.006914,0.004440,0.057157,0.000244,  48.893
   302.4,0.006869,0.004415,0.056827,0.000244,  48.891
   302.6,0.006827,0.004382,0.056510,0.000244,  48.894
   302.8,0.006776,0.004353,0.056180,0.000244,  48.891
   303.0,0.006730,0.004328,0.055875,0.000244,  48.885
   303.2,0.006692,0.004298,0.055324,0.000257,  48.888
   303.4,0.006643,0.004272,0.054685,0.000244,  48.885
   303.6,0.006597,0.004245,0.053952,0.000244,  48.887
   303.8,0.006559,0.004215,0.053624,0.000244,  48.885
   304.0,0.006510,0.004190,0.053428,0.000232,  48.884
   304.2,0.006467,0.004160,0.053398,0.000232,  48.879
   304.4,0.006428,0.004128,0.053036,0.000232,  48.881
   304.6,0.006379,0.004103,0.052578,0.000232,  48.883
   304.8,0.006334,0.004079,0.052021,0.000232,  48.880
   305.0,0.006295,0.004058,0.051778,0.000232,  48.879
   305.2,0.006246,0.004036,0.051647,0.000232,  48.879
   305.4,0.006207,0.004016,0.051618,0.000232,  48.878
   305.6,0.006173,0.004002,0.051321,0.000232,  48.877
   305.8,0.006124,0.003972,0.050949,0.000267,  48.870
   306.0,0.006082,0.003949,0.050499,0.000267,  48.854
   306.2,0.006042,0.003924,0.050257,0.000232,  48.857
   306.4,0.005998,0.003896,0.050062,0.000267,  48.857
   306.6,0.005962,0.003868,0.049908,0.000267,  48.851
   306.8,0.005920,0.003846,0.049590,0.000232,  48.852
   307.0,0.005876,0.003820,0.049218,0.000267,  48.850
   307.2,0.005845,0.003791,0.048759,0.000267,  48.852
   307.4,0.005806,0.003768,0.048489,0.000232,  48.848
   307.6,0.005765,0.003740,0.048241,0.000267,  48.849
   307.8,0.005731,0.003717,0.048053,0.000267,  48.846
   308.0,0.005691,0.003692,0.047818,0.000244,  48.851
   308.2,0.005650,0.003661,0.047565,0.000280,  48.846
   308.4,0.005622,0.003647,0.047295,0.000280,  48.849
   308.6,0.005585,0.003626,0.047043,0.000257,  48.848
   308.8,0.005556,0.003602,0.046779,0.000280,  48.851
   309.0,0.005527,0.003579,0.046521,0.000280,  48.843
   309.2,0.005497,0.003561,0.046310,0.000257,  48.847
   309.4,0.005477,0.003539,0.046093,0.000280,  48.849
   309.6,0.005438,0.003519,0.045911,0.000280,  48.847
   309.8,0.005401,0.003500,0.045496,0.000257,  48.849
   310.0,0.005368,0.003469,0.044960,0.000244,  48.846
   310.2,0.005324,0.003447,0.044309,0.000244,  48.849
   310.4,0.005294,0.003426,0.044012,0.000244,  48.849
   310.6,0.005256,0.003400,0.043825,0.000232,  48.852
   310.8,0.005218,0.003378,0.043749,0.000232,  48.847
   311.0,0.005190,0.003361,0.043423,0.000232,  48.845
   311.2,0.005156,0.003345,0.043000,0.000244,  48.848
   311.4,0.005117,0.003320,0.042507,0.000232,  48.849
   311.6,0.005092,0.003298,0.042269,0.000232,  48.847
   311.8,0.005055,0.003276,0.042124,0.000232,  48.850
   312.0,0.005017,0.003256,0.042048,0.000219,  48.845
   312.2,0.004989,0.003231,0.041810,0.000206,  48.845
   312.4,0.004952,0.003211,0.041533,0.000206,  48.846
   312.6,0.004913,0.003197,0.041221,0.000219,  48.847
   312.8,0.004888,0.003177,0.040858,0.000232,  48.851
   313.0,0.004856,0.003156,0.040684,0.000232,  48.852
   313.2,0.004815,0.003139,0.040562,0.000232,  48.849
   313.4,0.004790,0.003119,0.040480,0.000244,  48.852
   313.6,0.004758,0.003099,0.040151,0.000244,  48.849
   313.8,0.004720,0.003076,0.039737,0.000232,  48.848
   314.0,0.004697,0.003063,0.039192,0.000232,  48.852
   314.2,0.004671,0.003045,0.038870,0.000232,  48.853
   314.4,0.004635,0.003019,0.038588,0.000232,  48.852
   314.6,0.004610,0.003000,0.038370,0.000232,  48.854
   314.8,0.004582,0.002984,0.038226,0.000232,  48.851
   315.0,0.004548,0.002966,0.038127,0.000232,  48.849
   315.2,0.004520,0.002952,0.038092,0.000232,  48.854
   315.4,0.004502,0.002945,0.037833,0.000232,  48.851
   315.6,0.004467,0.002923,0.037479,0.000232,  48.851
   315.8,0.004431,0.002903,0.037039,0.000228,  48.854
   316.0,0.004398,0.002888,0.036866,0.000225,  48.851
   316.2,0.004368,0.002870,0.036757,0.000230,  48.852
   316.4,0.004348,0.002848,0.036749,0.000195,  48.854
   316.6,0.004321,0.002835,0.036612,0.000221,  48.851
   316.8,0.004288,0.002819,0.036434,0.000225,  48.851
   317.0,0.004268,0.002800,0.036245,0.000215,  48.852
   317.2,0.004239,0.002785,0.036096,0.000193,  48.856
   317.4,0.004206,0.002770,0.035952,0.000228,  48.850
   317.6,0.004189,0.002753,0.035837,0.000241,  48.851
   317.8,0.004163,0.002737,0.035478,0.000206,  48.853
   318.0,0.004132,0.002721,0.034972,0.000206,  48.852
   318.2,0.004106,0.002705,0.034355,0.000219,  48.851
   318.4,0.004077,0.002684,0.034139,0.000219,  48.854
   318.6,0.004056,0.002666,0.034035,0.000206,  48.856
   318.8,0.004037,0.002652,0.034067,0.000219,  48.855
   319.0,0.004012,0.002632,0.033800,0.000219,  48.850
   319.2,0.003996,0.002618,0.033443,0.000219,  48.853
   319.4,0.003969,0.002604,0.033003,0.000232,  48.853
   319.6,0.003945,0.002589,0.032860,0.000232,  48.851
   319.8,0.003925,0.002571,0.032836,0.000232,  48.853
   320.0,0.003895,0.002556,0.032913,0.000244,  48.853
   320.2,0.003875,0.002542,0.032624,0.000244,  48.854
   320.4,0.003852,0.002521,0.032207,0.000232,  48.852
   320.6,0.003825,0.002506,0.031656,0.000232,  48.852
   320.8,0.003798,0.002498,0.031548,0.000232,  48.854
   321.0,0.003772,0.002482,0.031579,0.000244,  48.853
   321.2,0.003744,0.002464,0.031774,0.000232,  48.855
   321.4,0.003724,0.002450,0.031598,0.000232,  48.851
   321.6,0.003700,0.002434,0.031310,0.000232,  48.855
   321.8,0.003673,0.002422,0.030906,0.000232,  48.852
   322.0,0.003649,0.002408,0.030680,0.000232,  48.852
   322.2,0.003625,0.002394,0.030494,0.000232,  48.846
   322.4,0.003598,0.002383,0.030342,0.000232,  48.855
   322.6,0.003577,0.002367,0.030224,0.000232,  48.850
   322.8,0.003559,0.002350,0.030100,0.000232,  48.849
   323.0,0.003532,0.002332,0.029975,0.000232,  48.852
   323.2,0.003514,0.002314,0.029850,0.000219,  48.848
   323.4,0.003494,0.002297,0.029758,0.000219,  48.853
   323.6,0.003467,0.002284,0.029678,0.000219,  48.847
   323.8,0.003450,0.002273,0.029632,0.000206,  48.846
   324.0,0.003423,0.002263,0.029435,0.000206,  48.849
   324.2,0.003398,0.002254,0.029166,0.000219,  48.850
   324.4,0.003384,0.002245,0.028826,0.000219,  48.847
   324.6,0.003362,0.002236,0.028596,0.000219,  48.847
   324.8,0.003338,0.002220,0.028361,0.000219,  48.846
   325.0,0.003320,0.002202,0.028149,0.000219,  48.846
   325.2,0.003296,0.002190,0.027920,0.000219,  48.846
   325.4,0.003273,0.002176,0.027657,0.000219,  48.847
   325.6,0.003257,0.002164,0.027390,0.000232,  48.847
   325.8,0.003240,0.002156,0.027349,0.000232,  48.848
   326.0,0.003216,0.002142,0.027396,0.000232,  48.849
   326.2,0.003193,0.002131,0.027549,0.000244,  48.845
   326.4,0.003174,0.002115,0.027514,0.000244,  48.846
   326.6,0.003149,0.002105,0.027418,0.000232,  48.846
   326.8,0.003130,0.002091,0.027278,0.000232,  48.842
   327.0,0.003112,0.002083,0.027071,0.000244,  48.840
   327.2,0.003089,0.002073,0.026793,0.000244,  48.843
   327.4,0.003077,0.002057,0.026459,0.000244,  48.837
   327.6,0.003062,0.002047,0.026319,0.000257,  48.838
   327.8,0.003039,0.002034,0.026229,0.000244,  48.838
   328.0,0.003027,0.002020,0.026222,0.000244,  48.837
   328.2,0.003006,0.002011,0.025978,0.000244,  48.839
   328.4,0.002984,0.001997,0.025640,0.000232,  48.839
   328.6,0.002972,0.001985,0.025220,0.000232,  48.834
   328.8,0.002953,0.001976,0.024965,0.000232,  48.833
   329.0,0.002938,0.001968,0.024760,0.000232,  48.833
   329.2,0.002925,0.001953,0.024576,0.000232,  48.831
   329.4,0.002905,0.001941,0.024421,0.000232,  48.828
   329.6,0.002894,0.001929,0.024304,0.000267,  48.830
   329.8,0.002872,0.001918,0.024220,0.000267,  48.831
   330.0,0.002860,0.001905,0.024009,0.000232,  48.826
   330.2,0.002842,0.001896,0.023766,0.000267,  48.826
   330.4,0.002822,0.001884,0.023474,0.000267,  48.825
   330.6,0.002804,0.001874,0.023500,0.000232,  48.825
   330.8,0.002791,0.001868,0.023623,0.000232,  48.823
   331.0,0.002769,0.001858,0.023884,0.000232,  48.818
   331.2,0.002753,0.001845,0.023927,0.000232,  48.825
   331.4,0.002741,0.001834,0.023903,0.000244,  48.819
   331.6,0.002723,0.001824,0.023824,0.000232,  48.821
   331.8,0.002711,0.001817,0.023784,0.000232,  48.816
   332.0,0.002709,0.001806,0.023706,0.000232,  48.817
   332.2,0.002684,0.001794,0.023611,0.000232,  48.815
   332.4,0.002669,0.001780,0.023571,0.000232,  48.817
   332.6,0.002655,0.001766,0.023558,0.000232,  48.813
   332.8,0.002633,0.001767,0.023551,0.000232,  48.811
   333.0,0.002615,0.001759,0.023572,0.000232,  48.810
   333.2,0.002596,0.001747,0.023477,0.000232,  48.812
   333.4,0.002577,0.001743,0.023344,0.000232,  48.807
   333.6,0.002558,0.001732,0.023194,0.000232,  48.810
   333.8,0.002549,0.001720,0.023100,0.000232,  48.812
   334.0,0.002529,0.001712,0.023005,0.000232,  48.809
   334.2,0.002517,0.001698,0.022927,0.000232,  48.811
   334.4,0.002508,0.001692,0.022728,0.000232,  48.813
   334.6,0.002491,0.001683,0.022486,0.000232,  48.815
   334.8,0.002484,0.001681,0.022173,0.000232,  48.811
   335.0,0.002474,0.001677,0.022013,0.000232,  48.808
   335.2,0.002457,0.001664,0.021903,0.000232,  48.813
   335.4,0.002452,0.001658,0.021831,0.000232,  48.811
   335.6,0.002439,0.001647,0.021491,0.000232,  48.810
   335.8,0.002420,0.001639,0.021032,0.000232,  48.813
   336.0,0.002410,0.001631,0.020460,0.000232,  48.808
   336.2,0.002392,0.001626,0.020333,0.000232,  48.816
   336.4,0.002375,0.001618,0.020385,0.000232,  48.815
   336.6,0.002368,0.001612,0.020612,0.000232,  48.816
   336.8,0.002352,0.001604,0.020518,0.000232,  48.817
   337.0,0.002335,0.001598,0.020353,0.000232,  48.818
   337.2,0.002322,0.001592,0.020118,0.000232,  48.818
   337.4,0.002306,0.001582,0.020116,0.000232,  48.817
   337.6,0.002289,0.001574,0.020180,0.000232,  48.816
   337.8,0.002279,0.001566,0.020314,0.000232,  48.819
   338.0,0.002275,0.001557,0.020117,0.000232,  48.818
   338.2,0.002264,0.001544,0.019774,0.000232,  48.822
   338.4,0.002256,0.001536,0.019313,0.000232,  48.819
   338.6,0.002246,0.001530,0.019235,0.000232,  48.824
   338.8,0.002238,0.001520,0.019293,0.000232,  48.821
   339.0,0.002227,0.001510,0.019493,0.000232,  48.823
   339.2,0.002214,0.001505,0.019529,0.000232,  48.825
   339.4,0.002199,0.001500,0.019528,0.000232,  48.822
   339.6,0.002179,0.001495,0.019527,0.000232,  48.828
   339.8,0.002172,0.001490,0.019395,0.000232,  48.826
   340.0,0.002165,0.001484,0.019187,0.000232,  48.831
   340.2,0.002149,0.001476,0.018904,0.000232,  48.830
   340.4,0.002144,0.001467,0.018740,0.000232,  48.828
   340.6,0.002131,0.001459,0.018582,0.000244,  48.829
   340.8,0.002114,0.001455,0.018430,0.000232,  48.832
   341.0,0.002108,0.001449,0.018407,0.000232,  48.832
   341.2,0.002094,0.001438,0.018432,0.000232,  48.834
   341.4,0.002077,0.001427,0.018517,0.000232,  48.840
   341.6,0.002073,0.001413,0.018483,0.000232,  48.839
   341.8,0.002060,0.001400,0.018417,0.000232,  48.842
   342.0,0.002043,0.001391,0.018308,0.000232,  48.841
   342.2,0.002039,0.001385,0.018183,0.000232,  48.841
   342.4,0.002026,0.001380,0.018068,0.000232,  48.839
   342.6,0.002009,0.001369,0.017926,0.000232,  48.839
   342.8,0.002005,0.001363,0.017758,0.000232,  48.843
   343.0,0.001992,0.001359,0.017530,0.000232,  48.842
   343.2,0.001975,0.001346,0.017276,0.000232,  48.841
   343.4,0.001968,0.001340,0.016951,0.000232,  48.846
   343.6,0.001958,0.001332,0.016933,0.000232,  48.844
   343.8,0.001943,0.001329,0.017040,0.000232,  48.844
   344.0,0.001937,0.001319,0.017270,0.000232,  48.842
   344.2,0.001923,0.001323,0.017344,0.000232,  48.840
   344.4,0.001906,0.001320,0.017391,0.000232,  48.847
   344.6,0.001905,0.001316,0.017422,0.000232,  48.842
   344.8,0.001894,0.001307,0.017415,0.000232,  48.843
   345.0,0.001877,0.001297,0.017370,0.000232,  48.841
   345.2,0.001873,0.001291,0.017304,0.000219,  48.844
   345.4,0.001860,0.001288,0.017142,0.000219,  48.842
   345.6,0.001846,0.001286,0.016882,0.000219,  48.847
   345.8,0.001844,0.001282,0.016547,0.000206,  48.845
   346.0,0.001831,0.001278,0.016486,0.000206,  48.845
   346.2,0.001814,0.001277,0.016528,0.000219,  48.845
   346.4,0.001813,0.001271,0.016662,0.000219,  48.845
   346.6,0.001802,0.001255,0.016644,0.000219,  48.844
   346.8,0.001785,0.001249,0.016616,0.000219,  48.841
   347.0,0.001784,0.001243,0.016572,0.000219,  48.840
   347.2,0.001779,0.001237,0.016528,0.000219,  48.839
   347.4,0.001771,0.001229,0.016484,0.000219,  48.835
   347.6,0.001766,0.001223,0.016412,0.000219,  48.836
   347.8,0.001751,0.001215,0.016196,0.000219,  48.836
   348.0,0.001750,0.001207,0.015905,0.000219,  48.839
   348.2,0.001733,0.001196,0.015523,0.000219,  48.836
   348.4,0.001720,0.001195,0.015446,0.000219,  48.836
   348.6,0.001716,0.001191,0.015483,0.000219,  48.835
   348.8,0.001701,0.001180,0.015610,0.000219,  48.828
   349.0,0.001693,0.001175,0.015512,0.000219,  48.829
   349.2,0.001683,0.001171,0.015366,0.000206,  48.825
   349.4,0.001669,0.001164,0.015150,0.000219,  48.830
   349.6,0.001661,0.001153,0.015010,0.000219,  48.825
   349.8,0.001657,0.001145,0.014858,0.000206,  48.828
   350.0,0.001642,0.001143,0.014707,0.000206,  48.826
   350.2,0.001637,0.001137,0.014540,0.000219,  48.830
   350.4,0.001636,0.001130,0.014368,0.000206,  48.831
   350.6,0.001621,0.001119,0.014186,0.000206,  48.827
   350.8,0.001613,0.001117,0.014083,0.000219,  48.825
   351.0,0.001609,0.001113,0.014056,0.000206,  48.828
   351.2,0.001595,0.001105,0.014023,0.000206,  48.828
   351.4,0.001590,0.001101,0.014054,0.000219,  48.826
   351.6,0.001584,0.001097,0.014127,0.000219,  48.828
   351.8,0.001570,0.001091,0.014261,0.000206,  48.831
   352.0,0.001569,0.001092,0.014431,0.000219,  48.824
   352.2,0.001561,0.001084,0.014505,0.000219,  48.828
   352.4,0.001549,0.001081,0.014525,0.000206,  48.823
   352.6,0.001548,0.001076,0.014513,0.000219,  48.826
   352.8,0.001542,0.001069,0.014367,0.000219,  48.826
   353.0,0.001531,0.001066,0.014142,0.000206,  48.823
   353.2,0.001527,0.001060,0.013826,0.000219,  48.824
   353.4,0.001519,0.001053,0.013617,0.000219,  48.825
   353.6,0.001504,0.001049,0.013440,0.000206,  48.826
   353.8,0.001503,0.001047,0.013275,0.000219,  48.829
   354.0,0.001492,0.001043,0.013300,0.000219,  48.827
   354.2,0.001478,0.001039,0.013428,0.000206,  48.823
   354.4,0.001474,0.001033,0.013639,0.000219,  48.826
   354.6,0.001461,0.001036,0.013537,0.000219,  48.829
   354.8,0.001447,0.001034,0.013312,0.000219,  48.829
   355.0,0.001448,0.001021,0.012975,0.000219,  48.827
   355.2,0.001440,0.001019,0.012937,0.000219,  48.829
   355.4,0.001426,0.001015,0.012983,0.000219,  48.831
   355.6,0.001429,0.001010,0.013126,0.000219,  48.828
   355.8,0.001428,0.001003,0.013050,0.000219,  48.827
   356.0,0.001414,0.000998,0.012899,0.000219,  48.832
   356.2,0.001408,0.000997,0.012702,0.000219,  48.830
   356.4,0.001398,0.000992,0.012589,0.000219,  48.825
   356.6,0.001386,0.000989,0.012492,0.000219,  48.827
   356.8,0.001387,0.000985,0.012422,0.000219,  48.833
   357.0,0.001382,0.000985,0.012288,0.000219,  48.829
   357.2,0.001377,0.000985,0.012117,0.000219,  48.830
   357.4,0.001374,0.000978,0.011926,0.000219,  48.834
   357.6,0.001365,0.000976,0.011845,0.000219,  48.832
   357.8,0.001366,0.000974,0.011808,0.000219,  48.833
   358.0,0.001361,0.000966,0.011796,0.000219,  48.830
   358.2,0.001356,0.000966,0.011694,0.000219,  48.833
   358.4,0.001352,0.000962,0.011566,0.000219,  48.836
   358.6,0.001337,0.000954,0.011407,0.000219,  48.836
   358.8,0.001335,0.000955,0.011563,0.000219,  48.833
   359.0,0.001333,0.000953,0.011886,0.000219,  48.839
   359.2,0.001322,0.000948,0.012329,0.000219,  48.838
   359.4,0.001316,0.000946,0.012429,0.000219,  48.838
   359.6,0.001318,0.000944,0.012444,0.000219,  48.839
   359.8,0.001308,0.000937,0.012354,0.000219,  48.839
   360.0,0.001303,0.000928,0.012268,0.000219,  48.840
   360.2,0.001304,0.000919,0.012113,0.000219,  48.843
   360.4,0.001293,0.000914,0.011922,0.000219,  48.843
   360.6,0.001290,0.000914,0.011900,0.000219,  48.841
   360.8,0.001286,0.000910,0.011936,0.000219,  48.844
   361.0,0.001274,0.000904,0.012026,0.000219,  48.842
   361.2,0.001269,0.000906,0.012180,0.000219,  48.845
   361.4,0.001268,0.000902,0.012110,0.000219,  48.846
   361.6,0.001256,0.000895,0.011982,0.000219,  48.846
   361.8,0.001251,0.000898,0.011796,0.000219,  48.853
   362.0,0.001252,0.000894,0.011599,0.000219,  48.851
   362.2,0.001240,0.000888,0.011366,0.000219,  48.849
   362.4,0.001235,0.000891,0.011108,0.000219,  48.849
   362.6,0.001230,0.000885,0.010827,0.000219,  48.853
   362.8,0.001221,0.000876,0.010514,0.000219,  48.850
   363.0,0.001219,0.000870,0.010169,0.000219,  48.851
   363.2,0.001211,0.000863,0.010062,0.000219,  48.857
   363.4,0.001200,0.000861,0.010040,0.000206,  48.853
   363.6,0.001201,0.000857,0.010096,0.000219,  48.853
   363.8,0.001196,0.000860,0.010058,0.000219,  48.856
   364.0,0.001186,0.000861,0.010025,0.000206,  48.856
   364.2,0.001188,0.000859,0.009978,0.000219,  48.854
   364.4,0.001182,0.000852,0.009960,0.000219,  48.854
   364.6,0.001173,0.000850,0.009986,0.000206,  48.857
   364.8,0.001175,0.000839,0.010039,0.000219,  48.859
   365.0,0.001167,0.000835,0.010169,0.000219,  48.860
   365.2,0.001155,0.000833,0.010359,0.000206,  48.861
   365.4,0.001156,0.000827,0.010590,0.000219,  48.862
   365.6,0.001148,0.000829,0.010716,0.000219,  48.860
   365.8,0.001139,0.000825,0.010811,0.000206,  48.862
   366.0,0.001140,0.000822,0.010853,0.000219,  48.858
   366.2,0.001135,0.000826,0.010984,0.000219,  48.862
   366.4,0.001126,0.000826,0.011136,0.000206,  48.864
   366.6,0.001125,0.000821,0.011309,0.000219,  48.878
   366.8,0.001117,0.000820,0.011377,0.000219,  48.877
   367.0,0.001105,0.000820,0.011397,0.000206,  48.878
   367.2,0.001110,0.000814,0.011371,0.000219,  48.877
   367.4,0.001111,0.000810,0.011423,0.000219,  48.879
   367.6,0.001106,0.000808,0.011469,0.000206,  48.875
   367.8,0.001103,0.000799,0.011525,0.000219,  48.876
   368.0,0.001097,0.000798,0.011339,0.000219,  48.876
   368.2,0.001101,0.000791,0.011026,0.000206,  48.873
   368.4,0.001094,0.000787,0.010593,0.000219,  48.876
   368.6,0.001092,0.000789,0.010529,0.000219,  48.873
   368.8,0.001098,0.000787,0.010554,0.000206,  48.872
   369.0,0.001089,0.000788,0.010718,0.000219,  48.871
   369.2,0.001096,0.000791,0.010639,0.000219,  48.869
   369.4,0.001093,0.000786,0.010485,0.000219,  48.869
   369.6,0.001084,0.000784,0.010263,0.000219,  48.862
   369.8,0.001079,0.000778,0.010252,0.000219,  48.850
   370.0,0.001076,0.000771,0.010288,0.000219,  48.844
   370.2,0.001069,0.000774,0.010411,0.000219,  48.847
   370.4,0.001064,0.000772,0.010468,0.000219,  48.845
   370.6,0.001065,0.000767,0.010531,0.000219,  48.848
   370.8,0.001056,0.000765,0.010593,0.000219,  48.841
   371.0,0.001054,0.000767,0.010666,0.000219,  48.843
   371.2,0.001055,0.000767,0.010623,0.000219,  48.842
   371.4,0.001046,0.000761,0.010533,0.000219,  48.839
   371.6,0.001043,0.000765,0.010385,0.000219,  48.843
   371.8,0.001044,0.000758,0.010452,0.000219,  48.840
   372.0,0.001035,0.000754,0.010615,0.000219,  48.839
   372.2,0.001033,0.000754,0.010858,0.000219,  48.842
   372.4,0.001034,0.000745,0.010868,0.000219,  48.842
   372.6,0.001025,0.000748,0.010804,0.000219,  48.842
   372.8,0.001020,0.000748,0.010656,0.000219,  48.840
   373.0,0.001023,0.000748,0.010613,0.000219,  48.840
   373.2,0.001014,0.000742,0.010565,0.000219,  48.839
   373.4,0.001009,0.000748,0.010537,0.000219,  48.840
   373.6,0.001008,0.000744,0.010532,0.000219,  48.839
   373.8,0.000999,0.000739,0.010536,0.000219,  48.836
   374.0,0.000996,0.000737,0.010557,0.000219,  48.835
   374.2,0.000991,0.000731,0.010366,0.000219,  48.839
   374.4,0.000982,0.000724,0.010081,0.000219,  48.838
   374.6,0.000985,0.000722,0.009695,0.000219,  48.838
   374.8,0.000980,0.000723,0.009636,0.000219,  48.838
   375.0,0.000971,0.000716,0.009678,0.000219,  48.840
   375.2,0.000972,0.000710,0.009832,0.000232,  48.838
   375.4,0.000970,0.000711,0.009899,0.000232,  48.842
   375.6,0.000961,0.000705,0.009987,0.000232,  48.841
   375.8,0.000964,0.000705,0.010098,0.000244,  48.841
   376.0,0.000959,0.000707,0.010070,0.000244,  48.842
   376.2,0.000954,0.000699,0.009985,0.000232,  48.839
   376.4,0.000951,0.000693,0.009847,0.000219,  48.842
   376.6,0.000946,0.000692,0.009873,0.000219,  48.839
   376.8,0.000947,0.000683,0.009940,0.000219,  48.843
   377.0,0.000936,0.000679,0.010060,0.000206,  48.844
   377.2,0.000933,0.000680,0.009938,0.000206,  48.842
   377.4,0.000928,0.000671,0.009710,0.000219,  48.841
   377.6,0.000919,0.000670,0.009389,0.000219,  48.842
   377.8,0.000920,0.000669,0.009368,0.000219,  48.842
   378.0,0.000917,0.000659,0.009425,0.000206,  48.846
   378.2,0.000908,0.000662,0.009567,0.000206,  48.846
   378.4,0.000909,0.000660,0.009618,0.000219,  48.844
   378.6,0.000911,0.000654,0.009676,0.000206,  48.847
   378.8,0.000901,0.000656,0.009716,0.000206,  48.846
   379.0,0.000899,0.000656,0.009700,0.000219,  48.845
   379.2,0.000903,0.000649,0.009663,0.000206,  48.845
   379.4,0.000894,0.000647,0.009605,0.000206,  48.846
   379.6,0.000891,0.000643,0.009610,0.000219,  48.854
   379.8,0.000890,0.000637,0.009630,0.000219,  48.850
   380.0,0.000880,0.000639,0.009688,0.000206,  48.848
   380.2,0.000878,0.000639,0.009750,0.000219,  48.848
   380.4,0.000882,0.000637,0.009580,0.000219,  48.846
   380.6,0.000874,0.000639,0.009348,0.000206,  48.845
   380.8,0.000876,0.000639,0.009026,0.000219,  48.847
   381.0,0.000880,0.000635,0.008952,0.000219,  48.850
   381.2,0.000880,0.000636,0.008973,0.000206,  48.849
   381.4,0.000873,0.000630,0.009079,0.000219,  48.841
   381.6,0.000872,0.000628,0.009095,0.000219,  48.845
   381.8,0.000866,0.000621,0.009099,0.000206,  48.840
   382.0,0.000866,0.000624,0.009099,0.000219,  48.841
   382.2,0.000857,0.000622,0.009124,0.000219,  48.842
   382.4,0.000848,0.000624,0.009166,0.000206,  48.843
   382.6,0.000848,0.000622,0.009192,0.000219,  48.843
   382.8,0.000848,0.000624,0.009064,0.000219,  48.846
   383.0,0.000844,0.000623,0.008869,0.000206,  48.847
   383.2,0.000841,0.000627,0.008579,0.000219,  48.844
   383.4,0.000842,0.000624,0.008446,0.000219,  48.846
   383.6,0.000838,0.000626,0.008357,0.000219,  48.845
   383.8,0.000838,0.000626,0.008288,0.000219,  48.844
   384.0,0.000842,0.000620,0.008124,0.000219,  48.848
   384.2,0.000836,0.000617,0.007930,0.000219,  48.847
   384.4,0.000836,0.000619,0.007705,0.000219,  48.848
   384.6,0.000837,0.000616,0.007773,0.000219,  48.845
   384.8,0.000831,0.000607,0.007972,0.000206,  48.844
   385.0,0.000828,0.000610,0.008287,0.000219,  48.852
   385.2,0.000823,0.000608,0.008302,0.000219,  48.853
   385.4,0.000820,0.000602,0.008207,0.000206,  48.847
   385.6,0.000823,0.000604,0.008017,0.000219,  48.851
   385.8,0.000811,0.000604,0.008064,0.000219,  48.853
   386.0,0.000817,0.000598,0.008173,0.000206,  48.850
   386.2,0.000811,0.000601,0.008352,0.000219,  48.847
   386.4,0.000808,0.000600,0.008436,0.000219,  48.855
   386.6,0.000812,0.000593,0.008510,0.000219,  48.850
   386.8,0.000806,0.000598,0.008556,0.000219,  48.850
   387.0,0.000810,0.000600,0.008461,0.000219,  48.849
   387.2,0.000811,0.000595,0.008282,0.000219,  48.848
   387.4,0.000802,0.000596,0.008014,0.000219,  48.852
   387.6,0.000799,0.000592,0.007923,0.000219,  48.850
   387.8,0.000803,0.000587,0.007897,0.000219,  48.847
   388.0,0.000794,0.000590,0.007923,0.000219,  48.847
   388.2,0.000789,0.000588,0.007975,0.000219,  48.847
   388.4,0.000786,0.000585,0.008073,0.000219,  48.847
   388.6,0.000782,0.000583,0.008220,0.000219,  48.847
   388.8,0.000780,0.000580,0.008273,0.000219,  48.843
   389.0,0.000780,0.000575,0.008309,0.000219,  48.844
   389.2,0.000773,0.000572,0.008299,0.000219,  48.844
   389.4,0.000770,0.000570,0.008284,0.000219,  48.847
   389.6,0.000772,0.000564,0.008326,0.000219,  48.844
   389.8,0.000763,0.000564,0.008351,0.000219,  48.844
   390.0,0.000763,0.000568,0.008393,0.000219,  48.843
   390.2,0.000764,0.000559,0.008361,0.000219,  48.846
   390.4,0.000757,0.000558,0.008296,0.000219,  48.843
   390.6,0.000752,0.000562,0.008180,0.000219,  48.849
   390.8,0.000756,0.000558,0.008237,0.000219,  48.842
   391.0,0.000752,0.000551,0.008351,0.000219,  48.847
   391.2,0.000756,0.000555,0.008519,0.000219,  48.848
   391.4,0.000762,0.000557,0.008528,0.000219,  48.845
   391.6,0.000759,0.000551,0.008497,0.000219,  48.850
   391.8,0.000762,0.000558,0.008409,0.000219,  48.850
   392.0,0.000762,0.000554,0.008398,0.000219,  48.851
   392.2,0.000756,0.000556,0.008403,0.000219,  48.855
   392.4,0.000760,0.000556,0.008424,0.000219,  48.870
   392.6,0.000755,0.000558,0.008298,0.000219,  48.870
   392.8,0.000745,0.000560,0.008093,0.000219,  48.867
   393.0,0.000752,0.000558,0.007809,0.000219,  48.869
   393.2,0.000747,0.000556,0.007761,0.000219,  48.873
   393.4,0.000740,0.000556,0.007798,0.000219,  48.869
   393.6,0.000744,0.000554,0.007914,0.000219,  48.868
   393.8,0.000741,0.000552,0.007940,0.000219,  48.874
   394.0,0.000738,0.000552,0.007934,0.000219,  48.869
   394.2,0.000738,0.000552,0.007917,0.000232,  48.874
   394.4,0.000735,0.000552,0.007853,0.000232,  48.872
   394.6,0.000731,0.000554,0.007747,0.000232,  48.873
   394.8,0.000735,0.000558,0.007610,0.000232,  48.875
   395.0,0.000739,0.000562,0.007641,0.000232,  48.871
   395.2,0.000739,0.000560,0.007729,0.000219,  48.873
   395.4,0.000739,0.000558,0.007909,0.000206,  48.876
   395.6,0.000730,0.000554,0.007804,0.000206,  48.876
   395.8,0.000736,0.000552,0.007589,0.000219,  48.877
   396.0,0.000734,0.000549,0.007264,0.000219,  48.876
   396.2,0.000731,0.000547,0.007232,0.000219,  48.877
   396.4,0.000735,0.000545,0.007316,0.000219,  48.878
   396.6,0.000726,0.000546,0.007484,0.000219,  48.879
   396.8,0.000726,0.000540,0.007535,0.000219,  48.876
   397.0,0.000723,0.000533,0.007615,0.000219,  48.874
   397.2,0.000717,0.000533,0.007678,0.000219,  48.876
   397.4,0.000720,0.000533,0.007782,0.000219,  48.879
   397.6,0.000720,0.000525,0.007913,0.000219,  48.880
   397.8,0.000717,0.000523,0.008043,0.000219,  48.880
   398.0,0.000711,0.000523,0.007869,0.000219,  48.880
   398.2,0.000709,0.000519,0.007554,0.000219,  48.883
   398.4,0.000705,0.000521,0.007077,0.000219,  48.879
   398.6,0.000702,0.000519,0.006988,0.000219,  48.885
   398.8,0.000709,0.000521,0.007015,0.000219,  48.878
   399.0,0.000702,0.000525,0.007139,0.000219,  48.882
   399.2,0.000700,0.000527,0.007396,0.000219,  48.883
   399.4,0.000701,0.000527,0.007448,0.000219,  48.881
   399.6,0.000692,0.000523,0.007481,0.000219,  48.884
   399.8,0.000692,0.000519,0.007497,0.000219,  48.887
   400.0,0.000696,0.000517,0.007617,0.000219,  48.886
   400.2,0.000686,0.000521,0.007796,0.000219,  48.889
   400.4,0.000681,0.000523,0.008000,0.000219,  48.891
   400.6,0.000685,0.000525,0.008026,0.000219,  48.890
   400.8,0.000679,0.000523,0.007974,0.000219,  48.889
   401.0,0.000676,0.000521,0.007843,0.000219,  48.886
   401.2,0.000680,0.000519,0.007821,0.000219,  48.887
   401.4,0.000675,0.000523,0.007810,0.000219,  48.890
   401.6,0.000682,0.000515,0.007800,0.000219,  48.891
   401.8,0.000691,0.000514,0.007589,0.000219,  48.889
   402.0,0.000685,0.000507,0.007280,0.000219,  48.886
   402.2,0.000687,0.000508,0.006855,0.000219,  48.882
   402.4,0.000683,0.000502,0.006849,0.000219,  48.889
   402.6,0.000677,0.000499,0.006995,0.000219,  48.884
   402.8,0.000677,0.000501,0.007294,0.000219,  48.889
   403.0,0.000672,0.000503,0.007372,0.000219,  48.887
   403.2,0.000668,0.000505,0.007399,0.000219,  48.886
   403.4,0.000668,0.000503,0.007388,0.000219,  48.887
   403.6,0.000674,0.000503,0.007397,0.000219,  48.886
   403.8,0.000671,0.000503,0.007402,0.000219,  48.883
   404.0,0.000668,0.000503,0.007396,0.000219,  48.888
   404.2,0.000674,0.000501,0.007223,0.000219,  48.887
   404.4,0.000668,0.000501,0.006938,0.000219,  48.885
   404.6,0.000668,0.000501,0.006583,0.000219,  48.884
   404.8,0.000665,0.000499,0.006583,0.000219,  48.886
   405.0,0.000665,0.000498,0.006693,0.000219,  48.887
   405.2,0.000671,0.000495,0.006944,0.000219,  48.885
   405.4,0.000661,0.000498,0.007034,0.000219,  48.888
   405.6,0.000671,0.000494,0.007086,0.000219,  48.886
   405.8,0.000661,0.000492,0.007123,0.000219,  48.890
   406.0,0.000661,0.000502,0.007175,0.000219,  48.892
   406.2,0.000659,0.000502,0.007227,0.000219,  48.886
   406.4,0.000652,0.000500,0.007275,0.000219,  48.891
   406.6,0.000655,0.000501,0.007332,0.000219,  48.889
   406.8,0.000659,0.000510,0.007395,0.000219,  48.890
   407.0,0.000652,0.000514,0.007452,0.000219,  48.885
   407.2,0.000659,0.000513,0.007451,0.000219,  48.889
   407.4,0.000660,0.000510,0.007431,0.000219,  48.886
   407.6,0.000654,0.000512,0.007378,0.000219,  48.889
   407.8,0.000660,0.000512,0.007320,0.000219,  48.890
   408.0,0.000657,0.000506,0.007262,0.000241,  48.888
   408.2,0.000648,0.000504,0.007188,0.000241,  48.892
   408.4,0.000652,0.000504,0.007110,0.000254,  48.891
   408.6,0.000650,0.000504,0.006999,0.000219,  48.893
   408.8,0.000643,0.000504,0.006858,0.000254,  48.891
   409.0,0.000644,0.000504,0.006701,0.000254,  48.894
   409.2,0.000651,0.000509,0.006701,0.000219,  48.892
   409.4,0.000647,0.000505,0.006758,0.000219,  48.894
   409.6,0.000644,0.000499,0.006894,0.000219,  48.893
   409.8,0.000651,0.000504,0.006842,0.000219,  48.894
   410.0,0.000644,0.000504,0.006732,0.000219,  48.894
   410.2,0.000648,0.000499,0.006569,0.000219,  48.889
   410.4,0.000652,0.000495,0.006474,0.000219,  48.889
   410.6,0.000646,0.000491,0.006385,0.000219,  48.892
   410.8,0.000649,0.000488,0.006296,0.000219,  48.891
   411.0,0.000647,0.000484,0.006364,0.000219,  48.894
   411.2,0.000640,0.000484,0.006505,0.000219,  48.891
   411.4,0.000647,0.000476,0.006709,0.000219,  48.890
   411.6,0.000647,0.000480,0.006834,0.000219,  48.889
   411.8,0.000640,0.000476,0.006932,0.000219,  48.891
   412.0,0.000647,0.000480,0.007032,0.000219,  48.890
   412.2,0.000647,0.000482,0.007100,0.000219,  48.887
   412.4,0.000640,0.000478,0.007152,0.000219,  48.889
   412.6,0.000647,0.000482,0.007184,0.000219,  48.890
   412.8,0.000647,0.000488,0.007246,0.000219,  48.889
   413.0,0.000640,0.000485,0.007330,0.000219,  48.887
   413.2,0.000647,0.000487,0.007428,0.000219,  48.891
   413.4,0.000647,0.000489,0.007324,0.000219,  48.890
   413.6,0.000638,0.000486,0.007114,0.000219,  48.888
   413.8,0.000644,0.000488,0.006813,0.000219,  48.891
   414.0,0.000644,0.000486,0.006771,0.000219,  48.892
   414.2,0.000644,0.000482,0.006808,0.000219,  48.893
   414.4,0.000644,0.000484,0.006923,0.000232,  48.895
   414.6,0.000640,0.000491,0.006969,0.000232,  48.891
   414.8,0.000644,0.000489,0.007032,0.000232,  48.888
   415.0,0.000638,0.000491,0.007100,0.000244,  48.890
   415.2,0.000638,0.000495,0.007116,0.000244,  48.888
   415.4,0.000641,0.000492,0.007100,0.000232,  48.892
   415.6,0.000638,0.000497,0.007075,0.000219,  48.892
   415.8,0.000638,0.000497,0.007148,0.000219,  48.891
   416.0,0.000635,0.000492,0.007245,0.000219,  48.891
   416.2,0.000631,0.000497,0.007380,0.000219,  48.893
   416.4,0.000629,0.000496,0.007358,0.000219,  48.893
   416.6,0.000630,0.000491,0.007269,0.000219,  48.895
   416.8,0.000626,0.000491,0.007101,0.000219,  48.894
   417.0,0.000632,0.000491,0.007064,0.000219,  48.900
   417.2,0.000639,0.000489,0.007060,0.000219,  48.894
   417.4,0.000635,0.000491,0.007060,0.000219,  48.896
   417.6,0.000639,0.000495,0.007033,0.000219,  48.896
   417.8,0.000639,0.000490,0.006991,0.000219,  48.896
   418.0,0.000635,0.000495,0.006966,0.000219,  48.896
   418.2,0.000636,0.000493,0.006897,0.000219,  48.891
   418.4,0.000634,0.000486,0.006875,0.000219,  48.893
   418.6,0.000627,0.000489,0.006860,0.000219,  48.896
   418.8,0.000631,0.000485,0.006861,0.000219,  48.893
   419.0,0.000626,0.000479,0.006798,0.000219,  48.894
   419.2,0.000619,0.000480,0.006703,0.000219,  48.895
   419.4,0.000619,0.000482,0.006583,0.000232,  48.895
   419.6,0.000617,0.000483,0.006405,0.000232,  48.894
   419.8,0.000610,0.000481,0.006159,0.000232,  48.897
   420.0,0.000610,0.000481,0.005877,0.000244,  48.890
   420.2,0.000617,0.000481,0.005704,0.000244,  48.894
   420.4,0.000608,0.000473,0.005568,0.000232,  48.897
   420.6,0.000608,0.000471,0.005464,0.000232,  48.893
   420.8,0.000611,0.000473,0.005473,0.000232,  48.894
   421.0,0.000605,0.000471,0.005577,0.000232,  48.892
   421.2,0.000602,0.000469,0.005776,0.000232,  48.892
   421.4,0.000602,0.000469,0.005817,0.000232,  48.891
   421.6,0.000599,0.000468,0.005817,0.000232,  48.896
   421.8,0.000600,0.000470,0.005781,0.000232,  48.892
   422.0,0.000597,0.000469,0.005931,0.000232,  48.892
   422.2,0.000593,0.000467,0.006155,0.000232,  48.895
   422.4,0.000600,0.000471,0.006453,0.000232,  48.892
   422.6,0.000600,0.000469,0.006447,0.000232,  48.895
   422.8,0.000593,0.000465,0.006321,0.000232,  48.898
   423.0,0.000600,0.000467,0.006092,0.000232,  48.896
   423.2,0.000601,0.000469,0.006019,0.000232,  48.896
   423.4,0.000594,0.000464,0.005967,0.000232,  48.894
   423.6,0.000594,0.000467,0.005925,0.000232,  48.898
   423.8,0.000598,0.000469,0.005836,0.000232,  48.902
   424.0,0.000598,0.000465,0.005737,0.000232,  48.900
   424.2,0.000598,0.000467,0.005622,0.000232,  48.899
   424.4,0.000596,0.000467,0.005579,0.000232,  48.898
   424.6,0.000596,0.000460,0.005579,0.000232,  48.901
   424.8,0.000596,0.000467,0.005616,0.000232,  48.894
   425.0,0.000596,0.000471,0.005736,0.000232,  48.893
   425.2,0.000593,0.000464,0.005924,0.000232,  48.897
   425.4,0.000587,0.000467,0.006164,0.000232,  48.893
   425.6,0.000589,0.000463,0.006300,0.000232,  48.896
   425.8,0.000596,0.000461,0.006419,0.000232,  48.896
   426.0,0.000587,0.000459,0.006508,0.000232,  48.894
   426.2,0.000587,0.000460,0.006607,0.000232,  48.895
   426.4,0.000590,0.000460,0.006706,0.000244,  48.896
   426.6,0.000581,0.000453,0.006795,0.000232,  48.898
   426.8,0.000581,0.000460,0.006810,0.000232,  48.893
   427.0,0.000590,0.000457,0.006784,0.000232,  48.894
   427.2,0.000584,0.000453,0.006701,0.000232,  48.897
   427.4,0.000584,0.000451,0.006716,0.000232,  48.892
   427.6,0.000588,0.000447,0.006763,0.000232,  48.897
   427.8,0.000584,0.000447,0.006824,0.000232,  48.890
   428.0,0.000584,0.000443,0.006929,0.000232,  48.895
   428.2,0.000590,0.000441,0.006965,0.000232,  48.895
   428.4,0.000584,0.000445,0.007006,0.000232,  48.895
   428.6,0.000584,0.000444,0.007037,0.000232,  48.898
   428.8,0.000590,0.000441,0.006948,0.000232,  48.902
   429.0,0.000584,0.000443,0.006791,0.000232,  48.898
   429.2,0.000584,0.000445,0.006567,0.000232,  48.901
   429.4,0.000588,0.000445,0.006540,0.000232,  48.898
   429.6,0.000584,0.000441,0.006567,0.000232,  48.900
   429.8,0.000581,0.000439,0.006656,0.000219,  48.895
   430.0,0.000585,0.000441,0.006582,0.000219,  48.899
   430.2,0.000581,0.000439,0.006467,0.000219,  48.901
   430.4,0.000579,0.000438,0.006289,0.000206,  48.897
   430.6,0.000576,0.000439,0.006294,0.000206,  48.902
   430.8,0.000570,0.000437,0.006367,0.000219,  48.900
   431.0,0.000576,0.000436,0.006493,0.000219,  48.902
   431.2,0.000577,0.000440,0.006493,0.000219,  48.902
   431.4,0.000571,0.000440,0.006467,0.000219,  48.902
   431.6,0.000571,0.000439,0.006410,0.000219,  48.895
   431.8,0.000575,0.000441,0.006447,0.000219,  48.898
   432.0,0.000571,0.000440,0.006493,0.000219,  48.902
   432.2,0.000571,0.000437,0.006561,0.000219,  48.902
   432.4,0.000580,0.000431,0.006383,0.000219,  48.900
   432.6,0.000574,0.000431,0.006079,0.000206,  48.900
   432.8,0.000571,0.000433,0.005651,0.000219,  48.899
   433.0,0.000566,0.000433,0.005333,0.000219,  48.900
   433.2,0.000563,0.000430,0.004989,0.000206,  48.900
   433.4,0.000563,0.000427,0.004630,0.000219,  48.896
   433.6,0.000563,0.000429,0.004640,0.000219,  48.896
   433.8,0.000569,0.000429,0.004811,0.000206,  48.901
   434.0,0.000569,0.000425,0.005176,0.000219,  48.899
   434.2,0.000569,0.000431,0.005373,0.000219,  48.900
   434.4,0.000569,0.000429,0.005581,0.000206,  48.895
   434.6,0.000563,0.000434,0.005796,0.000219,  48.902
   434.8,0.000563,0.000432,0.005952,0.000219,  48.895
   435.0,0.000569,0.000428,0.006078,0.000206,  48.894
   435.2,0.000563,0.000432,0.006167,0.000206,  48.897
   435.4,0.000563,0.000434,0.006291,0.000219,  48.896
   435.6,0.000569,0.000429,0.006420,0.000206,  48.893
   435.8,0.000560,0.000433,0.006556,0.000206,  48.892
   436.0,0.000560,0.000432,0.006556,0.000219,  48.890
   436.2,0.000564,0.000429,0.006499,0.000206,  48.894
   436.4,0.000558,0.000429,0.006391,0.000206,  48.894
   436.6,0.000555,0.000434,0.006302,0.000219,  48.890
   436.8,0.000559,0.000436,0.006192,0.000219,  48.894
   437.0,0.000555,0.000432,0.006077,0.000206,  48.891
   437.2,0.000555,0.000428,0.005930,0.000219,  48.886
   437.4,0.000559,0.000430,0.005919,0.000219,  48.893
   437.6,0.000555,0.000428,0.005950,0.000206,  48.887
   437.8,0.000555,0.000428,0.006028,0.000219,  48.888
   438.0,0.000553,0.000430,0.006054,0.000219,  48.890
   438.2,0.000549,0.000425,0.006065,0.000206,  48.887
   438.4,0.000555,0.000427,0.006077,0.000219,  48.888
   438.6,0.000555,0.000429,0.006098,0.000219,  48.892
   438.8,0.000551,0.000423,0.006107,0.000206,  48.881
   439.0,0.000555,0.000427,0.006123,0.000219,  48.883
   439.2,0.000553,0.000430,0.006206,0.000206,  48.884
   439.4,0.000549,0.000428,0.006314,0.000193,  48.878
   439.6,0.000553,0.000429,0.006464,0.000206,  48.882
   439.8,0.000550,0.000428,0.006297,0.000193,  48.885
   440.0,0.000543,0.000426,0.005984,0.000193,  48.877
   440.2,0.000550,0.000431,0.005521,0.000206,  48.878
   440.4,0.000547,0.000431,0.005521,0.000193,  48.883
   440.6,0.000541,0.000435,0.005677,0.000193,  48.878
   440.8,0.000550,0.000435,0.005990,0.000206,  48.880
   441.0,0.000547,0.000433,0.006125,0.000206,  48.877
   441.2,0.000543,0.000430,0.006245,0.000206,  48.877
   441.4,0.000550,0.000432,0.006354,0.000219,  48.876
   441.6,0.000550,0.000434,0.006406,0.000219,  48.878
   441.8,0.000546,0.000431,0.006422,0.000206,  48.875
   442.0,0.000550,0.000427,0.006401,0.000219,  48.877
   442.2,0.000550,0.000428,0.006412,0.000219,  48.876
   442.4,0.000546,0.000433,0.006400,0.000206,  48.873
   442.6,0.000555,0.000433,0.006390,0.000219,  48.875
   442.8,0.000564,0.000431,0.005998,0.000219,  48.873
   443.0,0.000564,0.000433,0.005393,0.000206,  48.871
   443.2,0.000567,0.000439,0.004592,0.000219,  48.867
   443.4,0.000564,0.000437,0.004562,0.000219,  48.866
   443.6,0.000562,0.000435,0.004801,0.000219,  48.873
   443.8,0.000562,0.000435,0.005327,0.000219,  48.869
   444.0,0.000562,0.000434,0.005384,0.000219,  48.866
   444.2,0.000568,0.000431,0.005358,0.000219,  48.870
   444.4,0.000564,0.000438,0.005249,0.000219,  48.868
   444.6,0.000568,0.000436,0.005368,0.000219,  48.867
   444.8,0.000565,0.000429,0.005555,0.000219,  48.867
   445.0,0.000562,0.000432,0.005811,0.000219,  48.867
   445.2,0.000565,0.000433,0.005915,0.000219,  48.868
   445.4,0.000563,0.000428,0.005973,0.000219,  48.869
   445.6,0.000559,0.000428,0.005969,0.000219,  48.863
   445.8,0.000565,0.000432,0.005895,0.000219,  48.864
   446.0,0.000565,0.000429,0.005770,0.000219,  48.863
   446.2,0.000562,0.000431,0.005577,0.000219,  48.860
   446.4,0.000562,0.000431,0.005555,0.000232,  48.866
   446.6,0.000559,0.000427,0.005618,0.000232,  48.863
   446.8,0.000555,0.000427,0.005728,0.000232,  48.866
   447.0,0.000555,0.000428,0.005901,0.000232,  48.867
   447.2,0.000553,0.000418,0.005708,0.000232,  48.863
   447.4,0.000546,0.000420,0.005385,0.000219,  48.861
   447.6,0.000553,0.000422,0.004931,0.000206,  48.867
   447.8,0.000547,0.000422,0.004946,0.000206,  48.864
   448.0,0.000541,0.000420,0.005139,0.000219,  48.863
   448.2,0.000547,0.000422,0.005510,0.000219,  48.864
   448.4,0.000545,0.000417,0.005536,0.000219,  48.867
   448.6,0.000538,0.000414,0.005484,0.000219,  48.861
   448.8,0.000538,0.000414,0.005316,0.000219,  48.862
   449.0,0.000538,0.000409,0.005284,0.000219,  48.862
   449.2,0.000532,0.000411,0.005269,0.000219,  48.860
   449.4,0.000532,0.000411,0.005263,0.000219,  48.863
   449.6,0.000536,0.000414,0.005231,0.000219,  48.865
   449.8,0.000529,0.000409,0.005200,0.000219,  48.862
   450.0,0.000529,0.000409,0.005148,0.000219,  48.860
   450.2,0.000533,0.000409,0.005268,0.000219,  48.861
   450.4,0.000527,0.000409,0.005455,0.000219,  48.861
   450.6,0.000527,0.000409,0.005720,0.000232,  48.862
   450.8,0.000533,0.000412,0.005761,0.000196,  48.860
   451.0,0.000527,0.000416,0.005730,0.000196,  48.863
   451.2,0.000527,0.000413,0.005605,0.000209,  48.867
   451.4,0.000533,0.000418,0.005573,0.000174,  48.868
   451.6,0.000524,0.000418,0.005541,0.000196,  48.860
   451.8,0.000524,0.000416,0.005526,0.000196,  48.870
   452.0,0.000530,0.000414,0.005578,0.000161,  48.866
   452.2,0.000521,0.000414,0.005666,0.000196,  48.864
   452.4,0.000519,0.000412,0.005787,0.000196,  48.868
   452.6,0.000525,0.000412,0.005850,0.000161,  48.865
   452.8,0.000525,0.000414,0.005902,0.000196,  48.865
   453.0,0.000522,0.000410,0.005928,0.000196,  48.865
   453.2,0.000525,0.000408,0.005944,0.000161,  48.867
   453.4,0.000522,0.000410,0.005944,0.000196,  48.864
   453.6,0.000516,0.000409,0.005939,0.000184,  48.864
   453.8,0.000522,0.000409,0.005964,0.000148,  48.868
   454.0,0.000529,0.000409,0.006011,0.000184,  48.865
   454.2,0.000525,0.000413,0.006053,0.000171,  48.865
   454.4,0.000532,0.000409,0.005817,0.000136,  48.861
   454.6,0.000529,0.000405,0.005446,0.000184,  48.869
   454.8,0.000522,0.000407,0.004952,0.000184,  48.863
   455.0,0.000526,0.000410,0.004937,0.000184,  48.866
   455.2,0.000521,0.000409,0.005071,0.000148,  48.865
   455.4,0.000515,0.000403,0.005385,0.000184,  48.864
   455.6,0.000521,0.000408,0.005431,0.000184,  48.864
   455.8,0.000518,0.000410,0.005425,0.000184,  48.862
   456.0,0.000509,0.000399,0.005356,0.000184,  48.867
   456.2,0.000516,0.000397,0.005434,0.000184,  48.868
   456.4,0.000513,0.000395,0.005553,0.000148,  48.866
   456.6,0.000507,0.000393,0.005698,0.000184,  48.865
   456.8,0.000513,0.000397,0.005907,0.000184,  48.870
   457.0,0.000516,0.000399,0.005974,0.000148,  48.866
   457.2,0.000512,0.000396,0.006000,0.000184,  48.866
   457.4,0.000518,0.000396,0.006012,0.000184,  48.866
   457.6,0.000516,0.000394,0.005819,0.000148,  48.867
   457.8,0.000509,0.000395,0.005505,0.000184,  48.867
   458.0,0.000516,0.000396,0.005100,0.000184,  48.868
   458.2,0.000516,0.000393,0.005141,0.000184,  48.863
   458.4,0.000509,0.000391,0.005348,0.000206,  48.862
   458.6,0.000516,0.000400,0.005738,0.000219,  48.867
   458.8,0.000522,0.000400,0.005723,0.000219,  48.863
   459.0,0.000513,0.000400,0.005571,0.000219,  48.865
   459.2,0.000513,0.000398,0.005312,0.000219,  48.862
   459.4,0.000520,0.000396,0.005334,0.000219,  48.862
   459.6,0.000511,0.000397,0.005422,0.000206,  48.865
   459.8,0.000511,0.000398,0.005606,0.000219,  48.865
   460.0,0.000513,0.000402,0.005512,0.000219,  48.863
   460.2,0.000507,0.000404,0.005304,0.000206,  48.861
   460.4,0.000513,0.000404,0.004997,0.000219,  48.863
   460.6,0.000513,0.000404,0.004960,0.000219,  48.865
   460.8,0.000507,0.000403,0.004997,0.000206,  48.861
   461.0,0.000513,0.000402,0.005116,0.000219,  48.864
   461.2,0.000513,0.000401,0.005199,0.000219,  48.865
   461.4,0.000507,0.000399,0.005314,0.000206,  48.868
   461.6,0.000513,0.000392,0.005439,0.000219,  48.864
   461.8,0.000520,0.000392,0.005407,0.000219,  48.862
   462.0,0.000516,0.000392,0.005318,0.000206,  48.861
   462.2,0.000516,0.000390,0.005156,0.000219,  48.862
   462.4,0.000522,0.000396,0.005192,0.000219,  48.860
   462.6,0.000522,0.000398,0.005296,0.000206,  48.857
   462.8,0.000525,0.000399,0.005473,0.000219,  48.860
   463.0,0.000516,0.000397,0.005567,0.000219,  48.857
   463.2,0.000516,0.000394,0.005639,0.000206,  48.858
   463.4,0.000509,0.000390,0.005712,0.000219,  48.853
   463.6,0.000509,0.000392,0.005817,0.000219,  48.857
   463.8,0.000516,0.000392,0.005915,0.000206,  48.858
   464.0,0.000507,0.000390,0.006024,0.000219,  48.857
   464.2,0.000513,0.000392,0.006055,0.000219,  48.860
   464.4,0.000517,0.000392,0.006044,0.000206,  48.858
   464.6,0.000511,0.000384,0.005992,0.000206,  48.854
   464.8,0.000511,0.000384,0.005975,0.000219,  48.855
   465.0,0.000517,0.000385,0.005955,0.000171,  48.856
   465.2,0.000513,0.000386,0.005946,0.000171,  48.857
   465.4,0.000511,0.000387,0.005800,0.000184,  48.858
   465.6,0.000514,0.000387,0.005586,0.000171,  48.860
   465.8,0.000511,0.000391,0.005299,0.000171,  48.855
   466.0,0.000511,0.000386,0.004961,0.000184,  48.857
   466.2,0.000517,0.000387,0.004877,0.000184,  48.856
   466.4,0.000513,0.000389,0.004847,0.000206,  48.858
   466.6,0.000511,0.000393,0.004873,0.000219,  48.857
   466.8,0.000514,0.000393,0.005061,0.000219,  48.858
   467.0,0.000511,0.000392,0.005336,0.000206,  48.855
   467.2,0.000508,0.000396,0.005717,0.000219,  48.859
   467.4,0.000512,0.000398,0.005843,0.000219,  48.857
   467.6,0.000508,0.000399,0.005895,0.000206,  48.859
   467.8,0.000511,0.000400,0.005858,0.000219,  48.856
   468.0,0.000517,0.000402,0.005879,0.000219,  48.857
   468.2,0.000521,0.000399,0.005885,0.000206,  48.859
   468.4,0.000526,0.000404,0.005870,0.000219,  48.858
   468.6,0.000532,0.000407,0.005870,0.000219,  48.856
   468.8,0.000535,0.000406,0.005861,0.000206,  48.859
   469.0,0.000531,0.000408,0.005840,0.000219,  48.858
   469.2,0.000523,0.000409,0.005856,0.000219,  48.858
   469.4,0.000516,0.000409,0.005893,0.000219,  48.860
   469.6,0.000518,0.000412,0.005923,0.000219,  48.855
   469.8,0.000521,0.000412,0.005897,0.000219,  48.861
   470.0,0.000523,0.000410,0.005857,0.000219,  48.858
   470.2,0.000521,0.000412,0.005763,0.000219,  48.858
   470.4,0.000527,0.000418,0.005627,0.000219,  48.859
   470.6,0.000530,0.000421,0.005472,0.000219,  48.860
   470.8,0.000523,0.000417,0.005264,0.000219,  48.850
   471.0,0.000530,0.000416,0.005217,0.000219,  48.852
   471.2,0.000533,0.000414,0.005232,0.000219,  48.857
   471.4,0.000526,0.000417,0.005310,0.000219,  48.853
   471.6,0.000530,0.000416,0.005174,0.000219,  48.853
   471.8,0.000530,0.000414,0.004972,0.000219,  48.857
   472.0,0.000526,0.000412,0.004671,0.000219,  48.857
   472.2,0.000530,0.000417,0.004738,0.000219,  48.858
   472.4,0.000530,0.000414,0.004946,0.000219,  48.856
   472.6,0.000523,0.000411,0.005284,0.000219,  48.857
   472.8,0.000527,0.000409,0.005372,0.000219,  48.855
   473.0,0.000527,0.000407,0.005430,0.000219,  48.857
   473.2,0.000530,0.000410,0.005413,0.000219,  48.855
   473.4,0.000521,0.000410,0.005470,0.000219,  48.858
   473.6,0.000525,0.000410,0.005533,0.000219,  48.859
   473.8,0.000525,0.000407,0.005601,0.000219,  48.857
   474.0,0.000518,0.000411,0.005679,0.000219,  48.857
   474.2,0.000519,0.000408,0.005746,0.000241,  48.857
   474.4,0.000519,0.000405,0.005813,0.000241,  48.858
   474.6,0.000519,0.000407,0.005813,0.000219,  48.860
   474.8,0.000523,0.000405,0.005772,0.000241,  48.851
   475.0,0.000523,0.000402,0.005705,0.000241,  48.853
   475.2,0.000523,0.000400,0.005690,0.000254,  48.855
   475.4,0.000523,0.000394,0.005669,0.000219,  48.854
   475.6,0.000523,0.000396,0.005675,0.000241,  48.854
   475.8,0.000523,0.000395,0.005669,0.000254,  48.853
   476.0,0.000521,0.000392,0.005663,0.000219,  48.847
   476.2,0.000523,0.000399,0.005647,0.000241,  48.856
   476.4,0.000526,0.000401,0.005653,0.000254,  48.854
   476.6,0.000529,0.000400,0.005543,0.000219,  48.854
   476.8,0.000531,0.000407,0.005376,0.000241,  48.859
   477.0,0.000529,0.000407,0.005158,0.000254,  48.858
   477.2,0.000529,0.000404,0.005142,0.000219,  48.856
   477.4,0.000531,0.000406,0.005190,0.000241,  48.859
   477.6,0.000529,0.000408,0.005283,0.000254,  48.857
   477.8,0.000529,0.000410,0.005356,0.000219,  48.853
   478.0,0.000531,0.000407,0.005434,0.000241,  48.853
   478.2,0.000522,0.000410,0.005512,0.000254,  48.851
   478.4,0.000522,0.000413,0.005355,0.000219,  48.854
   478.6,0.000518,0.000411,0.005106,0.000241,  48.857
   478.8,0.000518,0.000411,0.004742,0.000254,  48.853
   479.0,0.000518,0.000408,0.004751,0.000219,  48.853
   479.2,0.000518,0.000405,0.004913,0.000241,  48.853
   479.4,0.000522,0.000407,0.005210,0.000254,  48.850
   479.6,0.000521,0.000407,0.005110,0.000219,  48.855
   479.8,0.000521,0.000404,0.004887,0.000241,  48.855
   480.0,0.000526,0.000406,0.004528,0.000254,  48.853
   480.2,0.000526,0.000405,0.004289,0.000219,  48.853
   480.4,0.000529,0.000405,0.004044,0.000254,  48.854
   480.6,0.000529,0.000405,0.003783,0.000254,  48.850
   480.8,0.000529,0.000408,0.003777,0.000219,  48.860
   481.0,0.000529,0.000405,0.003892,0.000254,  48.861
   481.2,0.000529,0.000408,0.004126,0.000254,  48.857
   481.4,0.000526,0.000411,0.004344,0.000219,  48.857
   481.6,0.000526,0.000408,0.004609,0.000254,  48.860
   481.8,0.000519,0.000408,0.004927,0.000254,  48.855
   482.0,0.000526,0.000405,0.005094,0.000219,  48.851
   482.2,0.000523,0.000405,0.005204,0.000254,  48.852
   482.4,0.000517,0.000408,0.005262,0.000254,  48.854
   482.6,0.000519,0.000413,0.005350,0.000219,  48.852
   482.8,0.000526,0.000411,0.005418,0.000241,  48.854
   483.0,0.000529,0.000411,0.005475,0.000254,  48.853
   483.2,0.000529,0.000413,0.005537,0.000219,  48.853
   483.4,0.000529,0.000411,0.005579,0.000241,  48.851
   483.6,0.000531,0.000411,0.005611,0.000241,  48.850
   483.8,0.000529,0.000415,0.005611,0.000219,  48.855
   484.0,0.000529,0.000415,0.005595,0.000241,  48.849
   484.2,0.000531,0.000416,0.005544,0.000241,  48.851
   484.4,0.000531,0.000418,0.005565,0.000219,  48.849
   484.6,0.000531,0.000418,0.005617,0.000241,  48.852
   484.8,0.000534,0.000420,0.005678,0.000241,  48.851
   485.0,0.000534,0.000420,0.005689,0.000254,  48.850
   485.2,0.000534,0.000415,0.005678,0.000219,  48.851
   485.4,0.000536,0.000415,0.005652,0.000241,  48.848
   485.6,0.000534,0.000413,0.005617,0.000254,  48.846
   485.8,0.000534,0.000410,0.005591,0.000219,  48.851
   486.0,0.000536,0.000414,0.005554,0.000254,  48.848
   486.2,0.000534,0.000418,0.005540,0.000254,  48.850
   486.4,0.000534,0.000418,0.005358,0.000219,  48.850
   486.6,0.000536,0.000419,0.005087,0.000254,  48.846
   486.8,0.000534,0.000424,0.004738,0.000254,  48.851
   487.0,0.000531,0.000424,0.004618,0.000219,  48.853
   487.2,0.000534,0.000424,0.004586,0.000254,  48.855
   487.4,0.000534,0.000429,0.004638,0.000254,  48.852
   487.6,0.000538,0.000429,0.004643,0.000219,  48.857
   487.8,0.000540,0.000429,0.004679,0.000254,  48.847
   488.0,0.000534,0.000427,0.004742,0.000254,  48.851
   488.2,0.000538,0.000427,0.004876,0.000219,  48.847
   488.4,0.000540,0.000424,0.005069,0.000254,  48.848
   488.6,0.000534,0.000422,0.005286,0.000254,  48.851
   488.8,0.000540,0.000422,0.005218,0.000219,  48.847
   489.0,0.000543,0.000417,0.005040,0.000254,  48.847
   489.2,0.000531,0.000420,0.004729,0.000254,  48.850
   489.4,0.000535,0.000418,0.004677,0.000219,  48.847
   489.6,0.000535,0.000412,0.004675,0.000254,  48.852
   489.8,0.000529,0.000416,0.004749,0.000254,  48.855
   490.0,0.000532,0.000415,0.004733,0.000219,  48.853
   490.2,0.000532,0.000410,0.004681,0.000254,  48.850
   490.4,0.000529,0.000412,0.004625,0.000254,  48.854
   490.6,0.000526,0.000409,0.004729,0.000219,  48.851
   490.8,0.000526,0.000407,0.004916,0.000254,  48.849
   491.0,0.000519,0.000408,0.005166,0.000254,  48.846
   491.2,0.000523,0.000407,0.005186,0.000219,  48.847
   491.4,0.000521,0.000403,0.005155,0.000254,  48.849
   491.6,0.000517,0.000403,0.005040,0.000254,  48.848
   491.8,0.000517,0.000411,0.005019,0.000219,  48.853
   492.0,0.000521,0.000407,0.005014,0.000254,  48.856
   492.2,0.000518,0.000407,0.005010,0.000254,  48.852
   492.4,0.000518,0.000405,0.005062,0.000219,  48.850
   492.6,0.000522,0.000400,0.005144,0.000254,  48.850
   492.8,0.000522,0.000405,0.005270,0.000254,  48.854
   493.0,0.000518,0.000401,0.005296,0.000219,  48.855
   493.2,0.000530,0.000396,0.005258,0.000254,  48.851
   493.4,0.000532,0.000405,0.005195,0.000254,  48.849
   493.6,0.000526,0.000405,0.005221,0.000219,  48.850
   493.8,0.000530,0.000402,0.005258,0.000254,  48.849
   494.0,0.000530,0.000404,0.005332,0.000254,  48.848
   494.2,0.000521,0.000401,0.005348,0.000254,  48.849
   494.4,0.000524,0.000403,0.005369,0.000219,  48.851
   494.6,0.000524,0.000403,0.005369,0.000254,  48.848
   494.8,0.000518,0.000403,0.005364,0.000254,  48.849
   495.0,0.000524,0.000403,0.005375,0.000219,  48.845
   495.2,0.000524,0.000402,0.005396,0.000254,  48.850
   495.4,0.000521,0.000404,0.005407,0.000254,  48.850
   495.6,0.000527,0.000401,0.005412,0.000219,  48.849
   495.8,0.000527,0.000407,0.005401,0.000254,  48.850
   496.0,0.000521,0.000413,0.005386,0.000254,  48.848
   496.2,0.000524,0.000411,0.005375,0.000219,  48.850
   496.4,0.000522,0.000414,0.005360,0.000254,  48.849
   496.6,0.000515,0.000413,0.005329,0.000254,  48.849
   496.8,0.000515,0.000414,0.005334,0.000254,  48.854
   497.0,0.000515,0.000414,0.005338,0.000276,  48.854
   497.2,0.000515,0.000414,0.005354,0.000289,  48.853
   497.4,0.000518,0.000413,0.005348,0.000289,  48.855
   497.6,0.000521,0.000413,0.005343,0.000276,  48.852
   497.8,0.000521,0.000417,0.005328,0.000289,  48.844
   498.0,0.000524,0.000423,0.005196,0.000289,  48.851
   498.2,0.000524,0.000426,0.005014,0.000276,  48.850
   498.4,0.000518,0.000420,0.004775,0.000289,  48.851
   498.6,0.000524,0.000421,0.004769,0.000289,  48.852
   498.8,0.000524,0.000419,0.004868,0.000276,  48.853
   499.0,0.000518,0.000413,0.005035,0.000289,  48.851
   499.2,0.000524,0.000414,0.005211,0.000289,  48.856
   499.4,0.000524,0.000414,0.005439,0.000276,  48.851
   499.6,0.000518,0.000408,0.005698,0.000289,  48.853
   499.8,0.000518,0.000412,0.005511,0.000289,  48.853
   500.0,0.000518,0.000414,0.005116,0.000276,  48.856
   500.2,0.000518,0.000408,0.004504,0.000289,  48.854
   500.4,0.000518,0.000412,0.004473,0.000289,  48.853
   500.6,0.000524,0.000413,0.004633,0.000276,  48.851
   500.8,0.000527,0.000410,0.004992,0.000289,  48.848
   501.0,0.000524,0.000413,0.005075,0.000289,  48.853
   501.2,0.000524,0.000415,0.005116,0.000276,  48.855
   501.4,0.000524,0.000411,0.005122,0.000289,  48.852
   501.6,0.000521,0.000413,0.005200,0.000289,  48.855
   501.8,0.000527,0.000412,0.005266,0.000276,  48.858
   502.0,0.000527,0.000413,0.005355,0.000276,  48.855
   502.2,0.000530,0.000418,0.005329,0.000289,  48.855
   502.4,0.000534,0.000415,0.005240,0.000276,  48.856
   502.6,0.000534,0.000415,0.005095,0.000276,  48.860
   502.8,0.000534,0.000416,0.005151,0.000289,  48.858
   503.0,0.000531,0.000411,0.005265,0.000276,  48.859
   503.2,0.000528,0.000411,0.005441,0.000276,  48.854
   503.4,0.000522,0.000414,0.005420,0.000289,  48.862
   503.6,0.000522,0.000409,0.005326,0.000289,  48.857
   503.8,0.000522,0.000413,0.005160,0.000276,  48.863
   504.0,0.000515,0.000418,0.004927,0.000289,  48.859
   504.2,0.000524,0.000413,0.004870,0.000289,  48.862
   504.4,0.000524,0.000413,0.004823,0.000276,  48.862
   504.6,0.000518,0.000416,0.004802,0.000289,  48.859
   504.8,0.000522,0.000411,0.004744,0.000289,  48.862
   505.0,0.000519,0.000409,0.004676,0.000276,  48.860
   505.2,0.000513,0.000412,0.004594,0.000289,  48.867
   505.4,0.000519,0.000407,0.004609,0.000289,  48.867
   505.6,0.000522,0.000412,0.004672,0.000276,  48.865
   505.8,0.000515,0.000416,0.004760,0.000289,  48.872
   506.0,0.000515,0.000416,0.004818,0.000289,  48.870
   506.2,0.000518,0.000415,0.004870,0.000276,  48.871
   506.4,0.000518,0.000419,0.004929,0.000289,  48.871
   506.6,0.000518,0.000420,0.004997,0.000289,  48.869
   506.8,0.000521,0.000422,0.005085,0.000276,  48.869
   507.0,0.000521,0.000420,0.005157,0.000289,  48.870
   507.2,0.000518,0.000420,0.005084,0.000289,  48.866
   507.4,0.000518,0.000417,0.004939,0.000276,  48.866
   507.6,0.000521,0.000420,0.004716,0.000289,  48.871
   507.8,0.000521,0.000418,0.004772,0.000289,  48.869
   508.0,0.000521,0.000418,0.004922,0.000276,  48.870
   508.2,0.000523,0.000418,0.005193,0.000289,  48.869
   508.4,0.000527,0.000419,0.005322,0.000289,  48.874
   508.6,0.000527,0.000419,0.005420,0.000276,  48.870
   508.8,0.000523,0.000417,0.005507,0.000289,  48.871
   509.0,0.000527,0.000417,0.005512,0.000289,  48.873
   509.2,0.000524,0.000417,0.005472,0.000276,  48.871
   509.4,0.000527,0.000415,0.005369,0.000289,  48.875
   509.6,0.000524,0.000415,0.005103,0.000289,  48.875
   509.8,0.000522,0.000410,0.004744,0.000276,  48.876
   510.0,0.000522,0.000414,0.004281,0.000289,  48.874
   510.2,0.000522,0.000414,0.004249,0.000289,  48.875
   510.4,0.000522,0.000409,0.004394,0.000276,  48.873
   510.6,0.000522,0.000416,0.004728,0.000289,  48.875
   510.8,0.000515,0.000414,0.004843,0.000289,  48.879
   511.0,0.000519,0.000411,0.004930,0.000289,  48.876
   511.2,0.000522,0.000411,0.005014,0.000289,  48.876
   511.4,0.000513,0.000408,0.005040,0.000289,  48.876
   511.6,0.000517,0.000405,0.005019,0.000276,  48.877
   511.8,0.000519,0.000410,0.004952,0.000276,  48.875
   512.0,0.000510,0.000413,0.004904,0.000289,  48.874
   512.2,0.000517,0.000410,0.004842,0.000276,  48.875
   512.4,0.000519,0.000411,0.004753,0.000276,  48.871
   512.6,0.000513,0.000407,0.004686,0.000289,  48.874
   512.8,0.000519,0.000406,0.004613,0.000289,  48.880
   513.0,0.000522,0.000410,0.004535,0.000276,  48.875
   513.2,0.000515,0.000409,0.004452,0.000289,  48.877
   513.4,0.000522,0.000409,0.004446,0.000289,  48.873
   513.6,0.000522,0.000408,0.004478,0.000276,  48.881
   513.8,0.000515,0.000408,0.004530,0.000289,  48.880
   514.0,0.000522,0.000408,0.004411,0.000289,  48.879
   514.2,0.000524,0.000406,0.004220,0.000276,  48.877
   514.4,0.000518,0.000409,0.003952,0.000289,  48.876
   514.6,0.000518,0.000412,0.004008,0.000289,  48.874
   514.8,0.000518,0.000413,0.004189,0.000276,  48.878
   515.0,0.000518,0.000411,0.004501,0.000289,  48.870
   515.2,0.000522,0.000411,0.004672,0.000289,  48.874
   515.4,0.000519,0.000413,0.004822,0.000276,  48.869
   515.6,0.000513,0.000413,0.004967,0.000289,  48.874
   515.8,0.000522,0.000417,0.005056,0.000289,  48.870
   516.0,0.000522,0.000419,0.005114,0.000289,  48.871
   516.2,0.000515,0.000419,0.005114,0.000289,  48.872
   516.4,0.000522,0.000417,0.005035,0.000289,  48.874
   516.6,0.000522,0.000416,0.004890,0.000289,  48.872
   516.8,0.000515,0.000416,0.004666,0.000289,  48.876
   517.0,0.000522,0.000413,0.004687,0.000289,  48.872
   517.2,0.000522,0.000413,0.004776,0.000289,  48.873
   517.4,0.000515,0.000411,0.004932,0.000289,  48.874
   517.6,0.000515,0.000410,0.004952,0.000289,  48.872
   517.8,0.000515,0.000403,0.004952,0.000289,  48.872
   518.0,0.000515,0.000401,0.004915,0.000289,  48.870
   518.2,0.000515,0.000406,0.004805,0.000289,  48.874
   518.4,0.000515,0.000403,0.004643,0.000289,  48.873
   518.6,0.000515,0.000400,0.004431,0.000289,  48.872
   518.8,0.000515,0.000406,0.004150,0.000289,  48.874
   519.0,0.000515,0.000401,0.003808,0.000276,  48.871
   519.2,0.000512,0.000397,0.003398,0.000289,  48.868
   519.4,0.000509,0.000401,0.003383,0.000289,  48.872
   519.6,0.000506,0.000399,0.003528,0.000276,  48.868
   519.8,0.000500,0.000397,0.003834,0.000289,  48.871
   520.0,0.000497,0.000397,0.003864,0.000289,  48.868
   520.2,0.000495,0.000401,0.003834,0.000276,  48.872
   520.4,0.000495,0.000398,0.003745,0.000289,  48.871
   520.6,0.000495,0.000392,0.003875,0.000289,  48.869
   520.8,0.000496,0.000396,0.004077,0.000289,  48.870
   521.0,0.000496,0.000398,0.004337,0.000289,  48.868
   521.2,0.000492,0.000394,0.004414,0.000289,  48.867
   521.4,0.000496,0.000393,0.004440,0.000289,  48.867
   521.6,0.000489,0.000388,0.004393,0.000289,  48.865
   521.8,0.000492,0.000389,0.004486,0.000289,  48.862
   522.0,0.000489,0.000387,0.004616,0.000289,  48.865
   522.2,0.000483,0.000388,0.004799,0.000289,  48.864
   522.4,0.000489,0.000394,0.004831,0.000289,  48.864
   522.6,0.000487,0.000394,0.004788,0.000289,  48.868
   522.8,0.000480,0.000395,0.004695,0.000289,  48.865
   523.0,0.000487,0.000398,0.004538,0.000289,  48.858
   523.2,0.000487,0.000395,0.004382,0.000289,  48.864
   523.4,0.000480,0.000399,0.004180,0.000289,  48.861
   523.6,0.000489,0.000405,0.003919,0.000289,  48.862
   523.8,0.000489,0.000404,0.003976,0.000289,  48.863
   524.0,0.000486,0.000408,0.004174,0.000289,  48.865
   524.2,0.000492,0.000405,0.004486,0.000289,  48.863
   524.4,0.000492,0.000401,0.004506,0.000289,  48.858
   524.6,0.000488,0.000401,0.004476,0.000289,  48.861
   524.8,0.000495,0.000401,0.004346,0.000289,  48.858
   525.0,0.000495,0.000401,0.004418,0.000289,  48.860
   525.2,0.000491,0.000401,0.004563,0.000289,  48.856
   525.4,0.000497,0.000394,0.004766,0.000289,  48.859
   525.6,0.000497,0.000399,0.004896,0.000289,  48.860
   525.8,0.000493,0.000401,0.005015,0.000276,  48.858
   526.0,0.000497,0.000396,0.005113,0.000289,  48.855
   526.2,0.000495,0.000396,0.005092,0.000289,  48.856
   526.4,0.000491,0.000396,0.005009,0.000276,  48.859
   526.6,0.000497,0.000392,0.004832,0.000289,  48.855
   526.8,0.000495,0.000396,0.004826,0.000289,  48.856
   527.0,0.000491,0.000399,0.004863,0.000276,  48.856
   527.2,0.000491,0.000397,0.004936,0.000289,  48.855
   527.4,0.000491,0.000400,0.004962,0.000289,  48.853
   527.6,0.000487,0.000402,0.004988,0.000276,  48.854
   527.8,0.000488,0.000402,0.004999,0.000289,  48.851
   528.0,0.000492,0.000398,0.004951,0.000289,  48.849
   528.2,0.000492,0.000395,0.004884,0.000276,  48.854
   528.4,0.000495,0.000397,0.004785,0.000289,  48.853
   528.6,0.000486,0.000399,0.004644,0.000289,  48.851
   528.8,0.000492,0.000399,0.004473,0.000276,  48.853
   529.0,0.000488,0.000393,0.004244,0.000289,  48.856
   529.2,0.000488,0.000394,0.004312,0.000289,  48.853
   529.4,0.000497,0.000396,0.004493,0.000276,  48.852
   529.6,0.000493,0.000398,0.004794,0.000289,  48.852
   529.8,0.000495,0.000398,0.004887,0.000289,  48.853
   530.0,0.000492,0.000393,0.004935,0.000276,  48.853
   530.2,0.000488,0.000391,0.004941,0.000276,  48.851
   530.4,0.000495,0.000387,0.005008,0.000289,  48.853
   530.6,0.000495,0.000382,0.005074,0.000276,  48.851
   530.8,0.000491,0.000384,0.005152,0.000276,  48.852
   531.0,0.000495,0.000387,0.005011,0.000289,  48.853
   531.2,0.000492,0.000386,0.004761,0.000276,  48.847
   531.4,0.000488,0.000388,0.004408,0.000276,  48.850
   531.6,0.000492,0.000384,0.004341,0.000289,  48.851
   531.8,0.000492,0.000382,0.004350,0.000289,  48.850
   532.0,0.000486,0.000386,0.004471,0.000276,  48.851
   532.2,0.000492,0.000384,0.004652,0.000289,  48.853
   532.4,0.000489,0.000384,0.004694,0.000289,  48.853
   532.6,0.000483,0.000384,0.004709,0.000276,  48.848
   532.8,0.000487,0.000389,0.004703,0.000289,  48.851
   533.0,0.000482,0.000384,0.004822,0.000289,  48.848
   533.2,0.000472,0.000386,0.004984,0.000276,  48.848
   533.4,0.000479,0.000386,0.005194,0.000289,  48.849
   533.6,0.000479,0.000384,0.005292,0.000289,  48.848
   533.8,0.000472,0.000384,0.005338,0.000276,  48.854
   534.0,0.000479,0.000387,0.005358,0.000289,  48.849
   534.2,0.000482,0.000388,0.005321,0.000289,  48.847
   534.4,0.000478,0.000384,0.005244,0.000276,  48.851
   534.6,0.000484,0.000387,0.005115,0.000289,  48.856
   534.8,0.000482,0.000386,0.005079,0.000289,  48.856
   535.0,0.000475,0.000380,0.005063,0.000276,  48.856
   535.2,0.000475,0.000379,0.005074,0.000289,  48.855
   535.4,0.000475,0.000375,0.005011,0.000289,  48.851
   535.6,0.000469,0.000370,0.004912,0.000289,  48.856
   535.8,0.000471,0.000374,0.004776,0.000289,  48.854
   536.0,0.000478,0.000375,0.004651,0.000289,  48.850
   536.2,0.000471,0.000370,0.004521,0.000289,  48.852
   536.4,0.000471,0.000375,0.004370,0.000289,  48.852
   536.6,0.000475,0.000375,0.004381,0.000289,  48.850
   536.8,0.000469,0.000370,0.004465,0.000276,  48.847
   537.0,0.000469,0.000375,0.004600,0.000289,  48.851
   537.2,0.000475,0.000375,0.004663,0.000289,  48.853
   537.4,0.000469,0.000368,0.004730,0.000276,  48.856
   537.6,0.000469,0.000369,0.004778,0.000289,  48.853
   537.8,0.000475,0.000370,0.004735,0.000289,  48.852
   538.0,0.000475,0.000364,0.004651,0.000276,  48.850
   538.2,0.000475,0.000365,0.004515,0.000289,  48.852
   538.4,0.000478,0.000371,0.004416,0.000289,  48.851
   538.6,0.000475,0.000369,0.004312,0.000276,  48.853
   538.8,0.000478,0.000365,0.004199,0.000289,  48.852
   539.0,0.000478,0.000366,0.004236,0.000289,  48.851
   539.2,0.000475,0.000366,0.004346,0.000276,  48.856
   539.4,0.000469,0.000364,0.004512,0.000289,  48.852
   539.6,0.000469,0.000369,0.004615,0.000289,  48.855
   539.8,0.000469,0.000365,0.004744,0.000276,  48.860
   540.0,0.000462,0.000365,0.004874,0.000276,  48.855
   540.2,0.000469,0.000367,0.004977,0.000289,  48.853
   540.4,0.000469,0.000364,0.005075,0.000276,  48.856
   540.6,0.000460,0.000371,0.005179,0.000276,  48.856
   540.8,0.000466,0.000371,0.005179,0.000289,  48.856
   541.0,0.000463,0.000368,0.005133,0.000276,  48.858
   541.2,0.000457,0.000368,0.005030,0.000276,  48.855
   541.4,0.000463,0.000370,0.005035,0.000289,  48.855
   541.6,0.000463,0.000365,0.005076,0.000289,  48.855
   541.8,0.000460,0.000370,0.005138,0.000276,  48.857
   542.0,0.000463,0.000373,0.005230,0.000289,  48.858
   542.2,0.000461,0.000368,0.005215,0.000289,  48.860
   542.4,0.000457,0.000373,0.005163,0.000276,  48.860
   542.6,0.000461,0.000371,0.005101,0.000289,  48.861
   542.8,0.000461,0.000366,0.004908,0.000289,  48.859
   543.0,0.000457,0.000368,0.004638,0.000276,  48.852
   543.2,0.000461,0.000368,0.004301,0.000289,  48.857
   543.4,0.000467,0.000365,0.004102,0.000289,  48.850
   543.6,0.000463,0.000367,0.003926,0.000276,  48.857
   543.8,0.000463,0.000367,0.003781,0.000289,  48.859
   544.0,0.000470,0.000367,0.003770,0.000289,  48.860
   544.2,0.000466,0.000367,0.003837,0.000276,  48.861
   544.4,0.000466,0.000365,0.003973,0.000289,  48.856
   544.6,0.000472,0.000366,0.004118,0.000289,  48.858
   544.8,0.000466,0.000364,0.004283,0.000276,  48.860
   545.0,0.000466,0.000364,0.004501,0.000289,  48.863
   545.2,0.000472,0.000367,0.004417,0.000289,  48.857
   545.4,0.000466,0.000362,0.004210,0.000276,  48.866
   545.6,0.000466,0.000364,0.003862,0.000289,  48.866
   545.8,0.000470,0.000364,0.003841,0.000289,  48.863
   546.0,0.000466,0.000359,0.003908,0.000276,  48.859
   546.2,0.000466,0.000366,0.004069,0.000289,  48.862
   546.4,0.000470,0.000369,0.004199,0.000276,  48.857
   546.6,0.000466,0.000369,0.004355,0.000263,  48.863
   546.8,0.000466,0.000371,0.004542,0.000276,  48.862
   547.0,0.000463,0.000375,0.004542,0.000263,  48.861
   547.2,0.000460,0.000375,0.004464,0.000263,  48.863
   547.4,0.000466,0.000371,0.004309,0.000276,  48.864
   547.6,0.000463,0.000375,0.004341,0.000263,  48.863
   547.8,0.000463,0.000371,0.004429,0.000263,  48.867
   548.0,0.000463,0.000373,0.004569,0.000276,  48.863
   548.2,0.000457,0.000373,0.004565,0.000263,  48.863
   548.4,0.000461,0.000368,0.004502,0.000263,  48.862
   548.6,0.000457,0.000374,0.004392,0.000276,  48.869
   548.8,0.000457,0.000373,0.004293,0.000263,  48.862
   549.0,0.000466,0.000370,0.004190,0.000263,  48.865
   549.2,0.000460,0.000374,0.004071,0.000276,  48.864
   549.4,0.000466,0.000373,0.004164,0.000228,  48.863
   549.6,0.000466,0.000370,0.004361,0.000228,  48.862
   549.8,0.000460,0.000368,0.004661,0.000228,  48.867
   550.0,0.000463,0.000369,0.004770,0.000193,  48.864
   550.2,0.000461,0.000366,0.004822,0.000228,  48.859
   550.4,0.000457,0.000362,0.004828,0.000228,  48.863
   550.6,0.000457,0.000366,0.004849,0.000193,  48.865
   550.8,0.000457,0.000367,0.004828,0.000228,  48.867
   551.0,0.000453,0.000364,0.004813,0.000228,  48.866
   551.2,0.000457,0.000370,0.004744,0.000241,  48.869
   551.4,0.000458,0.000368,0.004811,0.000193,  48.869
   551.6,0.000454,0.000366,0.004889,0.000228,  48.867
   551.8,0.000461,0.000364,0.005003,0.000241,  48.869
   552.0,0.000461,0.000357,0.005024,0.000193,  48.868
   552.2,0.000457,0.000362,0.005021,0.000228,  48.873
   552.4,0.000463,0.000363,0.004954,0.000241,  48.872
   552.6,0.000466,0.000362,0.004673,0.000193,  48.873
   552.8,0.000460,0.000361,0.004263,0.000228,  48.866
   553.0,0.000466,0.000363,0.003717,0.000241,  48.868
   553.2,0.000466,0.000365,0.003551,0.000228,  48.871
   553.4,0.000460,0.000367,0.003489,0.000263,  48.865
   553.6,0.000466,0.000367,0.003568,0.000276,  48.868
   553.8,0.000463,0.000363,0.003697,0.000263,  48.875
   554.0,0.000460,0.000358,0.003904,0.000263,  48.873
   554.2,0.000466,0.000361,0.004206,0.000276,  48.874
   554.4,0.000463,0.000363,0.004221,0.000276,  48.876
   554.6,0.000460,0.000363,0.004127,0.000276,  48.871
   554.8,0.000466,0.000368,0.003941,0.000289,  48.866
   555.0,0.000463,0.000372,0.003941,0.000289,  48.870
   555.2,0.000460,0.000372,0.003972,0.000276,  48.872
   555.4,0.000466,0.000374,0.004045,0.000289,  48.873
   555.6,0.000470,0.000374,0.004023,0.000289,  48.872
   555.8,0.000466,0.000374,0.003972,0.000276,  48.873
   556.0,0.000472,0.000376,0.003889,0.000289,  48.873
   556.2,0.000479,0.000377,0.004019,0.000289,  48.878
   556.4,0.000475,0.000370,0.004237,0.000276,  48.874
   556.6,0.000484,0.000375,0.004539,0.000289,  48.879
   556.8,0.000487,0.000376,0.004409,0.000289,  48.877
   557.0,0.000489,0.000371,0.004098,0.000276,  48.877
   557.2,0.000489,0.000371,0.003600,0.000289,  48.879
   557.4,0.000483,0.000378,0.003505,0.000289,  48.883
   557.6,0.000487,0.000377,0.003516,0.000276,  48.877
   557.8,0.000478,0.000381,0.003620,0.000289,  48.878
   558.0,0.000475,0.000385,0.003738,0.000289,  48.878
   558.2,0.000476,0.000383,0.003926,0.000276,  48.882
   558.4,0.000470,0.000384,0.004150,0.000289,  48.878
   558.6,0.000476,0.000378,0.004171,0.000289,  48.880
   558.8,0.000476,0.000378,0.004098,0.000276,  48.877
   559.0,0.000472,0.000380,0.003936,0.000276,  48.880
   559.2,0.000479,0.000384,0.004009,0.000289,  48.882
   559.4,0.000479,0.000386,0.004150,0.000276,  48.880
   559.6,0.000472,0.000379,0.004331,0.000276,  48.879
   559.8,0.000476,0.000379,0.004299,0.000289,  48.881
   560.0,0.000474,0.000381,0.004217,0.000276,  48.877
   560.2,0.000470,0.000374,0.004035,0.000276,  48.882
   560.4,0.000471,0.000379,0.004031,0.000289,  48.883
   560.6,0.000468,0.000376,0.004077,0.000289,  48.881
   560.8,0.000465,0.000376,0.004165,0.000276,  48.876
   561.0,0.000471,0.000378,0.004305,0.000289,  48.883
   561.2,0.000471,0.000376,0.004383,0.000289,  48.882
   561.4,0.000467,0.000378,0.004450,0.000276,  48.882
   561.6,0.000474,0.000376,0.004534,0.000289,  48.885
   561.8,0.000471,0.000374,0.004476,0.000289,  48.881
   562.0,0.000467,0.000378,0.004325,0.000276,  48.885
   562.2,0.000474,0.000376,0.004118,0.000289,  48.880
   562.4,0.000474,0.000372,0.004128,0.000289,  48.883
   562.6,0.000470,0.000374,0.004206,0.000276,  48.880
   562.8,0.000470,0.000371,0.004346,0.000289,  48.881
   563.0,0.000472,0.000371,0.004420,0.000289,  48.876
   563.2,0.000466,0.000369,0.004482,0.000276,  48.879
   563.4,0.000472,0.000369,0.004528,0.000289,  48.881
   563.6,0.000479,0.000371,0.004574,0.000289,  48.882
   563.8,0.000472,0.000369,0.004600,0.000276,  48.876
   564.0,0.000476,0.000371,0.004626,0.000289,  48.881
   564.2,0.000474,0.000370,0.004667,0.000289,  48.877
   564.4,0.000470,0.000368,0.004709,0.000276,  48.881
   564.6,0.000476,0.000369,0.004756,0.000289,  48.880
   564.8,0.000476,0.000374,0.004579,0.000289,  48.883
   565.0,0.000472,0.000371,0.004277,0.000276,  48.876
   565.2,0.000479,0.000373,0.003888,0.000289,  48.880
   565.4,0.000479,0.000374,0.003825,0.000289,  48.883
   565.6,0.000472,0.000374,0.003845,0.000276,  48.881
   565.8,0.000479,0.000378,0.003992,0.000289,  48.878
   566.0,0.000479,0.000376,0.004012,0.000289,  48.879
   566.2,0.000479,0.000374,0.004033,0.000276,  48.881
   566.4,0.000476,0.000380,0.004033,0.000289,  48.877
   566.6,0.000472,0.000380,0.004089,0.000289,  48.878
   566.8,0.000476,0.000378,0.004172,0.000276,  48.881
   567.0,0.000472,0.000382,0.004281,0.000289,  48.879
   567.2,0.000479,0.000380,0.004385,0.000289,  48.881
   567.4,0.000483,0.000382,0.004489,0.000276,  48.878
   567.6,0.000485,0.000380,0.004593,0.000289,  48.877
   567.8,0.000479,0.000383,0.004656,0.000289,  48.876
   568.0,0.000483,0.000385,0.004677,0.000276,  48.872
   568.2,0.000485,0.000378,0.004661,0.000289,  48.878
   568.4,0.000479,0.000381,0.004646,0.000289,  48.874
   568.6,0.000485,0.000381,0.004594,0.000276,  48.874
   568.8,0.000482,0.000381,0.004516,0.000276,  48.875
   569.0,0.000482,0.000382,0.004542,0.000289,  48.875
   569.2,0.000482,0.000384,0.004589,0.000276,  48.877
   569.4,0.000478,0.000384,0.004678,0.000276,  48.875
   569.6,0.000487,0.000384,0.004683,0.000289,  48.878
   569.8,0.000487,0.000383,0.004646,0.000276,  48.873
   570.0,0.000480,0.000387,0.004589,0.000276,  48.875
   570.2,0.000489,0.000388,0.004600,0.000289,  48.876
   570.4,0.000489,0.000386,0.004621,0.000289,  48.871
   570.6,0.000483,0.000387,0.004669,0.000276,  48.873
   570.8,0.000489,0.000386,0.004716,0.000289,  48.873
   571.0,0.000487,0.000383,0.004705,0.000289,  48.876
   571.2,0.000480,0.000385,0.004647,0.000276,  48.871
   571.4,0.000489,0.000387,0.004579,0.000289,  48.871
   571.6,0.000489,0.000385,0.004646,0.000289,  48.867
   571.8,0.000491,0.000389,0.004759,0.000276,  48.869
   572.0,0.000498,0.000393,0.004941,0.000289,  48.870
   572.2,0.000504,0.000398,0.004869,0.000289,  48.870
   572.4,0.000498,0.000398,0.004687,0.000276,  48.868
   572.6,0.000501,0.000399,0.004397,0.000289,  48.868
   572.8,0.000499,0.000401,0.004386,0.000289,  48.869
   573.0,0.000496,0.000401,0.004486,0.000276,  48.862
   573.2,0.000489,0.000399,0.004658,0.000289,  48.863
   573.4,0.000492,0.000397,0.004731,0.000289,  48.864
   573.6,0.000494,0.000396,0.004783,0.000276,  48.862
   573.8,0.000497,0.000389,0.004830,0.000289,  48.869
   574.0,0.000500,0.000390,0.004835,0.000289,  48.865
   574.2,0.000502,0.000392,0.004809,0.000289,  48.866
   574.4,0.000505,0.000397,0.004757,0.000289,  48.868
   574.6,0.000502,0.000397,0.004736,0.000289,  48.865
   574.8,0.000502,0.000397,0.004721,0.000289,  48.858
   575.0,0.000505,0.000393,0.004717,0.000289,  48.857
   575.2,0.000502,0.000393,0.004754,0.000289,  48.859
   575.4,0.000505,0.000393,0.004810,0.000289,  48.859
   575.6,0.000498,0.000388,0.004888,0.000289,  48.858
   575.8,0.000498,0.000393,0.004806,0.000289,  48.856
   576.0,0.000501,0.000395,0.004639,0.000289,  48.857
   576.2,0.000498,0.000395,0.004374,0.000289,  48.857
   576.4,0.000505,0.000406,0.004352,0.000289,  48.856
   576.6,0.000502,0.000406,0.004404,0.000289,  48.854
   576.8,0.000497,0.000399,0.004546,0.000289,  48.852
   577.0,0.000496,0.000400,0.004483,0.000289,  48.857
   577.2,0.000493,0.000402,0.004348,0.000276,  48.855
   577.4,0.000489,0.000399,0.004156,0.000289,  48.854
   577.6,0.000496,0.000401,0.004192,0.000289,  48.852
   577.8,0.000492,0.000399,0.004296,0.000276,  48.853
   578.0,0.000485,0.000399,0.004478,0.000289,  48.849
   578.2,0.000485,0.000394,0.004575,0.000289,  48.855
   578.4,0.000492,0.000389,0.004658,0.000276,  48.853
   578.6,0.000492,0.000392,0.004747,0.000289,  48.856
   578.8,0.000485,0.000386,0.004673,0.000289,  48.850
   579.0,0.000483,0.000382,0.004513,0.000276,  48.853
   579.2,0.000485,0.000388,0.004264,0.000276,  48.853
   579.4,0.000485,0.000386,0.004144,0.000289,  48.851
   579.6,0.000489,0.000386,0.004061,0.000276,  48.852
   579.8,0.000494,0.000386,0.003988,0.000276,  48.854
   580.0,0.000497,0.000389,0.004066,0.000289,  48.852
   580.2,0.000497,0.000384,0.004217,0.000276,  48.849
   580.4,0.000500,0.000386,0.004446,0.000276,  48.853
   580.6,0.000502,0.000388,0.004523,0.000289,  48.854
   580.8,0.000497,0.000388,0.004581,0.000289,  48.852
   581.0,0.000497,0.000388,0.004603,0.000276,  48.851
   581.2,0.000493,0.000391,0.004577,0.000289,  48.857
   581.4,0.000491,0.000389,0.004337,0.000289,  48.857
   581.6,0.000488,0.000384,0.003979,0.000276,  48.853
   581.8,0.000479,0.000385,0.003513,0.000289,  48.851
   582.0,0.000480,0.000388,0.003269,0.000289,  48.852
   582.2,0.000480,0.000386,0.003078,0.000276,  48.847
   582.4,0.000474,0.000390,0.002944,0.000289,  48.854
   582.6,0.000483,0.000392,0.002953,0.000289,  48.852
   582.8,0.000488,0.000398,0.003067,0.000276,  48.855
   583.0,0.000482,0.000399,0.003268,0.000289,  48.855
   583.2,0.000488,0.000398,0.003433,0.000289,  48.856
   583.4,0.000488,0.000402,0.003624,0.000276,  48.857
   583.6,0.000479,0.000392,0.003842,0.000289,  48.853
   583.8,0.000480,0.000394,0.003987,0.000289,  48.854
   584.0,0.000480,0.000387,0.004116,0.000276,  48.858
   584.2,0.000474,0.000387,0.004216,0.000289,  48.856
   584.4,0.000483,0.000385,0.004319,0.000289,  48.857
   584.6,0.000485,0.000380,0.004414,0.000276,  48.858
   584.8,0.000476,0.000383,0.004487,0.000289,  48.854
   585.0,0.000480,0.000384,0.004549,0.000289,  48.854
   585.2,0.000483,0.000379,0.004597,0.000276,  48.857
   585.4,0.000474,0.000376,0.004612,0.000289,  48.858
   585.6,0.000477,0.000376,0.004571,0.000289,  48.857
   585.8,0.000480,0.000370,0.004461,0.000276,  48.857
   586.0,0.000474,0.000377,0.004315,0.000289,  48.855
   586.2,0.000477,0.000382,0.004309,0.000289,  48.857
   586.4,0.000480,0.000376,0.004350,0.000276,  48.852
   586.6,0.000474,0.000378,0.004438,0.000289,  48.854
   586.8,0.000480,0.000378,0.004312,0.000289,  48.858
   587.0,0.000480,0.000376,0.004109,0.000276,  48.857
   587.2,0.000474,0.000376,0.003839,0.000289,  48.860
   587.4,0.000477,0.000376,0.003870,0.000289,  48.858
   587.6,0.000475,0.000374,0.004021,0.000276,  48.853
   587.8,0.000468,0.000371,0.004281,0.000289,  48.856
   588.0,0.000472,0.000375,0.004401,0.000289,  48.851
   588.2,0.000472,0.000377,0.004488,0.000289,  48.856
   588.4,0.000472,0.000376,0.004566,0.000289,  48.855
   588.6,0.000472,0.000382,0.004555,0.000289,  48.857
   588.8,0.000476,0.000386,0.004488,0.000289,  48.856
   589.0,0.000476,0.000386,0.004347,0.000289,  48.852
   589.2,0.000479,0.000384,0.004300,0.000289,  48.858
   589.4,0.000479,0.000381,0.004259,0.000276,  48.854
   589.6,0.000479,0.000383,0.004212,0.000276,  48.860
   589.8,0.000475,0.000380,0.004258,0.000289,  48.859
   590.0,0.000472,0.000378,0.004361,0.000276,  48.853
   590.2,0.000472,0.000378,0.004502,0.000276,  48.856
   590.4,0.000466,0.000371,0.004549,0.000289,  48.851
   590.6,0.000467,0.000367,0.004570,0.000276,  48.853
   590.8,0.000467,0.000372,0.004566,0.000276,  48.852
   591.0,0.000463,0.000371,0.004520,0.000289,  48.852
   591.2,0.000467,0.000371,0.004535,0.000289,  48.853
   591.4,0.000467,0.000371,0.004550,0.000276,  48.851
   591.6,0.000463,0.000373,0.004566,0.000289,  48.853
   591.8,0.000467,0.000369,0.004503,0.000276,  48.851
   592.0,0.000467,0.000371,0.004378,0.000263,  48.844
   592.2,0.000466,0.000369,0.004201,0.000276,  48.850
   592.4,0.000472,0.000366,0.004087,0.000276,  48.845
   592.6,0.000472,0.000368,0.003962,0.000276,  48.847
   592.8,0.000466,0.000365,0.003843,0.000289,  48.846
   593.0,0.000467,0.000365,0.003873,0.000276,  48.847
   593.2,0.000461,0.000365,0.003988,0.000263,  48.843
   593.4,0.000463,0.000365,0.004196,0.000276,  48.847
   593.6,0.000463,0.000368,0.004300,0.000228,  48.843
   593.8,0.000459,0.000363,0.004387,0.000228,  48.838
   594.0,0.000466,0.000365,0.004492,0.000241,  48.841
   594.2,0.000468,0.000367,0.004425,0.000193,  48.842
   594.4,0.000465,0.000362,0.004248,0.000228,  48.842
   594.6,0.000468,0.000363,0.003978,0.000241,  48.841
   594.8,0.000468,0.000362,0.004050,0.000193,  48.844
   595.0,0.000465,0.000362,0.004236,0.000228,  48.846
   595.2,0.000471,0.000365,0.004531,0.000241,  48.844
   595.4,0.000471,0.000373,0.004475,0.000193,  48.841
   595.6,0.000467,0.000371,0.004293,0.000228,  48.847
   595.8,0.000474,0.000374,0.003994,0.000241,  48.840
   596.0,0.000474,0.000372,0.004004,0.000193,  48.834
   596.2,0.000470,0.000369,0.004103,0.000228,  48.839
   596.4,0.000474,0.000371,0.004285,0.000241,  48.843
   596.6,0.000474,0.000378,0.004035,0.000228,  48.839
   596.8,0.000474,0.000378,0.003631,0.000263,  48.842
   597.0,0.000476,0.000378,0.003035,0.000276,  48.841
   597.2,0.000470,0.000385,0.002859,0.000276,  48.841
   597.4,0.000476,0.000380,0.002818,0.000276,  48.842
   597.6,0.000472,0.000382,0.002880,0.000289,  48.839
   597.8,0.000472,0.000381,0.003040,0.000276,  48.841
   598.0,0.000479,0.000380,0.003319,0.000263,  48.839
   598.2,0.000472,0.000375,0.003698,0.000276,  48.843
   598.4,0.000479,0.000377,0.003869,0.000263,  48.840
   598.6,0.000479,0.000379,0.003977,0.000263,  48.837
   598.8,0.000472,0.000376,0.004046,0.000276,  48.838
   599.0,0.000476,0.000377,0.004061,0.000263,  48.835
   599.2,0.000474,0.000377,0.004024,0.000263,  48.842
   599.4,0.000470,0.000373,0.003931,0.000263,  48.840
   599.6,0.000474,0.000375,0.003972,0.000263,  48.837
   599.8,0.000474,0.000371,0.004044,0.000263,  48.841
   600.0,0.000470,0.000373,0.004175,0.000263,  48.833
   600.2,0.000474,0.000373,0.004238,0.000263,  48.838
   600.4,0.000474,0.000370,0.004299,0.000263,  48.839
   600.6,0.000470,0.000372,0.004357,0.000263,  48.841
   600.8,0.000476,0.000374,0.004398,0.000276,  48.842
   601.0,0.000476,0.000373,0.004439,0.000263,  48.841
   601.2,0.000472,0.000375,0.004476,0.000263,  48.842
   601.4,0.000476,0.000377,0.004502,0.000276,  48.843
   601.6,0.000471,0.000376,0.004513,0.000263,  48.841
   601.8,0.000467,0.000378,0.004508,0.000263,  48.843
   602.0,0.000474,0.000374,0.004488,0.000276,  48.843
   602.2,0.000471,0.000374,0.004494,0.000263,  48.843
   602.4,0.000467,0.000374,0.004489,0.000263,  48.843
   602.6,0.000471,0.000372,0.004463,0.000276,  48.846
   602.8,0.000468,0.000375,0.004260,0.000263,  48.843
   603.0,0.000465,0.000373,0.003975,0.000263,  48.841
   603.2,0.000468,0.000375,0.003575,0.000276,  48.844
   603.4,0.000468,0.000375,0.003573,0.000263,  48.846
   603.6,0.000465,0.000368,0.003756,0.000263,  48.846
   603.8,0.000468,0.000373,0.004083,0.000276,  48.841
   604.0,0.000468,0.000378,0.004051,0.000263,  48.845
   604.2,0.000465,0.000371,0.003922,0.000263,  48.849
   604.4,0.000471,0.000371,0.003672,0.000276,  48.845
   604.6,0.000471,0.000378,0.003537,0.000263,  48.846
   604.8,0.000467,0.000375,0.003407,0.000263,  48.846
   605.0,0.000474,0.000377,0.003268,0.000276,  48.845
   605.2,0.000474,0.000379,0.003231,0.000263,  48.848
   605.4,0.000470,0.000378,0.003252,0.000263,  48.846
   605.6,0.000467,0.000378,0.003315,0.000276,  48.847
   605.8,0.000467,0.000378,0.003475,0.000276,  48.848
   606.0,0.000463,0.000374,0.003702,0.000276,  48.848
   606.2,0.000461,0.000370,0.004023,0.000289,  48.848
   606.4,0.000467,0.000370,0.004043,0.000276,  48.850
   606.6,0.000467,0.000366,0.003965,0.000263,  48.848
   606.8,0.000470,0.000368,0.003790,0.000276,  48.848
   607.0,0.000470,0.000374,0.003846,0.000263,  48.845
   607.2,0.000470,0.000372,0.003977,0.000263,  48.849
   607.4,0.000472,0.000372,0.004181,0.000276,  48.843
   607.6,0.000472,0.000378,0.004280,0.000263,  48.842
   607.8,0.000470,0.000373,0.004337,0.000263,  48.843
   608.0,0.000466,0.000377,0.004373,0.000276,  48.841
   608.2,0.000466,0.000381,0.004430,0.000263,  48.844
   608.4,0.000470,0.000381,0.004498,0.000263,  48.840
   608.6,0.000469,0.000381,0.004540,0.000263,  48.844
   608.8,0.000469,0.000386,0.004523,0.000263,  48.841
   609.0,0.000475,0.000385,0.004487,0.000263,  48.839
   609.2,0.000471,0.000384,0.004419,0.000263,  48.840
   609.4,0.000480,0.000387,0.004435,0.000263,  48.836
   609.6,0.000484,0.000382,0.004491,0.000263,  48.841
   609.8,0.000478,0.000386,0.004554,0.000263,  48.839
   610.0,0.000487,0.000390,0.004652,0.000276,  48.838
   610.2,0.000484,0.000389,0.004745,0.000263,  48.837
   610.4,0.000484,0.000391,0.004843,0.000263,  48.835
   610.6,0.000487,0.000389,0.004958,0.000276,  48.838
   610.8,0.000491,0.000389,0.004848,0.000263,  48.836
   611.0,0.000487,0.000386,0.004646,0.000263,  48.833
   611.2,0.000489,0.000388,0.004340,0.000276,  48.837
   611.4,0.000492,0.000387,0.004070,0.000263,  48.837
   611.6,0.000488,0.000391,0.003764,0.000263,  48.834
   611.8,0.000492,0.000398,0.003433,0.000276,  48.834
   612.0,0.000492,0.000393,0.003362,0.000263,  48.830
   612.2,0.000488,0.000398,0.003382,0.000263,  48.836
   612.4,0.000492,0.000399,0.003506,0.000276,  48.832
   612.6,0.000492,0.000399,0.003573,0.000276,  48.831
   612.8,0.000486,0.000399,0.003672,0.000276,  48.830
   613.0,0.000483,0.000398,0.003776,0.000289,  48.830
   613.2,0.000478,0.000398,0.003931,0.000276,  48.831
   613.4,0.000471,0.000395,0.004102,0.000263,  48.826
   613.6,0.000474,0.000389,0.004310,0.000276,  48.826
   613.8,0.000478,0.000387,0.004221,0.000263,  48.830
   614.0,0.000471,0.000387,0.003998,0.000263,  48.827
   614.2,0.000474,0.000383,0.003642,0.000276,  48.827
   614.4,0.000480,0.000388,0.003569,0.000263,  48.827
   614.6,0.000474,0.000388,0.003547,0.000263,  48.829
   614.8,0.000474,0.000388,0.003610,0.000276,  48.823
   615.0,0.000478,0.000388,0.003718,0.000263,  48.823
   615.2,0.000471,0.000381,0.003873,0.000263,  48.822
   615.4,0.000471,0.000380,0.004087,0.000276,  48.822
   615.6,0.000475,0.000380,0.004180,0.000276,  48.820
   615.8,0.000469,0.000374,0.004242,0.000276,  48.825
   616.0,0.000478,0.000381,0.004280,0.000289,  48.820
   616.2,0.000484,0.000386,0.004347,0.000289,  48.821
   616.4,0.000487,0.000384,0.004404,0.000276,  48.821
   616.6,0.000480,0.000390,0.004483,0.000289,  48.825
   616.8,0.000480,0.000392,0.004431,0.000289,  48.823
   617.0,0.000480,0.000393,0.004285,0.000276,  48.825
   617.2,0.000483,0.000393,0.004082,0.000289,  48.822
   617.4,0.000480,0.000391,0.004102,0.000289,  48.823
   617.6,0.000478,0.000389,0.004206,0.000276,  48.822
   617.8,0.000469,0.000386,0.004377,0.000289,  48.824
   618.0,0.000469,0.000379,0.004444,0.000289,  48.821
   618.2,0.000472,0.000374,0.004496,0.000276,  48.824
   618.4,0.000463,0.000374,0.004517,0.000276,  48.820
   618.6,0.000467,0.000378,0.004433,0.000289,  48.822
   618.8,0.000471,0.000371,0.004288,0.000276,  48.826
   619.0,0.000467,0.000371,0.004064,0.000276,  48.819
   619.2,0.000471,0.000373,0.004125,0.000289,  48.825
   619.4,0.000468,0.000371,0.004290,0.000276,  48.825
   619.6,0.000465,0.000368,0.004565,0.000276,  48.820
   619.8,0.000468,0.000369,0.004596,0.000289,  48.822
   620.0,0.000468,0.000369,0.004564,0.000289,  48.824
   620.2,0.000462,0.000372,0.004460,0.000276,  48.820
   620.4,0.000468,0.000367,0.004289,0.000289,  48.820
   620.6,0.000466,0.000365,0.004190,0.000289,  48.821
   620.8,0.000462,0.000369,0.004076,0.000276,  48.819
   621.0,0.000471,0.000367,0.003945,0.000289,  48.816
   621.2,0.000471,0.000367,0.003716,0.000289,  48.823
   621.4,0.000467,0.000370,0.003421,0.000276,  48.820
   621.6,0.000476,0.000374,0.003070,0.000289,  48.821
   621.8,0.000476,0.000374,0.003001,0.000289,  48.821
   622.0,0.000472,0.000378,0.003070,0.000276,  48.821
   622.2,0.000479,0.000380,0.003235,0.000289,  48.820
   622.4,0.000476,0.000377,0.003225,0.000289,  48.816
   622.6,0.000479,0.000372,0.003194,0.000276,  48.823
   622.8,0.000476,0.000374,0.003133,0.000289,  48.820
   623.0,0.000480,0.000372,0.003273,0.000289,  48.821
   623.2,0.000483,0.000370,0.003497,0.000276,  48.822
   623.4,0.000476,0.000368,0.003819,0.000289,  48.823
   623.6,0.000483,0.000369,0.003990,0.000289,  48.818
   623.8,0.000485,0.000376,0.004130,0.000276,  48.821
   624.0,0.000479,0.000374,0.004234,0.000289,  48.815
   624.2,0.000485,0.000374,0.004333,0.000276,  48.818
   624.4,0.000485,0.000380,0.004390,0.000263,  48.817
   624.6,0.000485,0.000378,0.004416,0.000276,  48.818
   624.8,0.000489,0.000374,0.004472,0.000263,  48.814
   625.0,0.000492,0.000374,0.004524,0.000263,  48.818
   625.2,0.000492,0.000376,0.004555,0.000276,  48.816
   625.4,0.000489,0.000379,0.004575,0.000263,  48.817
   625.6,0.000492,0.000377,0.004601,0.000250,  48.817
   625.8,0.000492,0.000378,0.004622,0.000263,  48.817
   626.0,0.000489,0.000383,0.004508,0.000263,  48.818
   626.2,0.000489,0.000380,0.004336,0.000263,  48.811
   626.4,0.000483,0.000375,0.004092,0.000276,  48.818
   626.6,0.000489,0.000376,0.004086,0.000263,  48.815
   626.8,0.000487,0.000372,0.004181,0.000263,  48.811
   627.0,0.000483,0.000374,0.004336,0.000276,  48.814
   627.2,0.000483,0.000371,0.004190,0.000263,  48.815
   627.4,0.000492,0.000370,0.003931,0.000263,  48.814
   627.6,0.000492,0.000374,0.003562,0.000276,  48.817
   627.8,0.000489,0.000378,0.003634,0.000263,  48.815
   628.0,0.000484,0.000378,0.003857,0.000263,  48.813
   628.2,0.000487,0.000376,0.004256,0.000263,  48.814
   628.4,0.000487,0.000371,0.004349,0.000263,  48.813
   628.6,0.000484,0.000367,0.004371,0.000263,  48.813
   628.8,0.000487,0.000367,0.004320,0.000263,  48.809
   629.0,0.000487,0.000365,0.004329,0.000263,  48.809
   629.2,0.000484,0.000363,0.004361,0.000263,  48.809
   629.4,0.000487,0.000369,0.004382,0.000263,  48.813
   629.6,0.000487,0.000373,0.004305,0.000276,  48.809
   629.8,0.000484,0.000370,0.004169,0.000263,  48.813
   630.0,0.000489,0.000372,0.004015,0.000263,  48.811
   630.2,0.000492,0.000374,0.003792,0.000276,  48.814
   630.4,0.000494,0.000374,0.003775,0.000263,  48.814
   630.6,0.000494,0.000374,0.003812,0.000263,  48.812
   630.8,0.000488,0.000378,0.003890,0.000276,  48.811
   631.0,0.000485,0.000376,0.003963,0.000263,  48.809
   631.2,0.000483,0.000374,0.004040,0.000263,  48.810
   631.4,0.000476,0.000374,0.004134,0.000276,  48.810
   631.6,0.000483,0.000370,0.004196,0.000263,  48.812
   631.8,0.000485,0.000372,0.004222,0.000263,  48.813
   632.0,0.000476,0.000369,0.004243,0.000276,  48.814
   632.2,0.000480,0.000375,0.004164,0.000263,  48.813
   632.4,0.000480,0.000371,0.004039,0.000263,  48.810
   632.6,0.000471,0.000374,0.003841,0.000276,  48.813
   632.8,0.000472,0.000373,0.003857,0.000263,  48.813
   633.0,0.000472,0.000368,0.003960,0.000263,  48.815
   633.2,0.000470,0.000371,0.004143,0.000276,  48.815
   633.4,0.000477,0.000369,0.004117,0.000263,  48.817
   633.6,0.000477,0.000367,0.004033,0.000263,  48.817
   633.8,0.000473,0.000367,0.003893,0.000276,  48.814
   634.0,0.000476,0.000367,0.003930,0.000263,  48.813
   634.2,0.000476,0.000364,0.004003,0.000263,  48.816
   634.4,0.000479,0.000364,0.004128,0.000276,  48.817
   634.6,0.000479,0.000367,0.004201,0.000263,  48.822
   634.8,0.000481,0.000364,0.004253,0.000263,  48.813
   635.0,0.000475,0.000365,0.004294,0.000276,  48.813
   635.2,0.000475,0.000370,0.004154,0.000263,  48.816
   635.4,0.000477,0.000366,0.003905,0.000263,  48.809
   635.6,0.000468,0.000369,0.003530,0.000276,  48.812
   635.8,0.000477,0.000373,0.003477,0.000263,  48.814
   636.0,0.000475,0.000375,0.003540,0.000263,  48.812
   636.2,0.000471,0.000374,0.003685,0.000276,  48.812
   636.4,0.000477,0.000377,0.003627,0.000276,  48.815
   636.6,0.000484,0.000381,0.003523,0.000276,  48.811
   636.8,0.000487,0.000380,0.003374,0.000289,  48.815
   637.0,0.000489,0.000387,0.003452,0.000289,  48.813
   637.2,0.000496,0.000384,0.003628,0.000276,  48.813
   637.4,0.000498,0.000386,0.003910,0.000276,  48.813
   637.6,0.000492,0.000388,0.004091,0.000289,  48.813
   637.8,0.000489,0.000387,0.004271,0.000276,  48.807
   638.0,0.000492,0.000391,0.004468,0.000276,  48.810
   638.2,0.000492,0.000391,0.004531,0.000289,  48.809
   638.4,0.000489,0.000388,0.004526,0.000276,  48.806
   638.6,0.000492,0.000390,0.004460,0.000276,  48.803
   638.8,0.000492,0.000392,0.004413,0.000289,  48.804
   639.0,0.000489,0.000387,0.004372,0.000289,  48.802
   639.2,0.000492,0.000385,0.004299,0.000276,  48.802
   639.4,0.000492,0.000384,0.004210,0.000289,  48.802
   639.6,0.000489,0.000378,0.004267,0.000289,  48.798
   639.8,0.000492,0.000380,0.004366,0.000276,  48.799
   640.0,0.000492,0.000386,0.004506,0.000289,  48.799
   640.2,0.000496,0.000384,0.004418,0.000276,  48.799
   640.4,0.000498,0.000388,0.004242,0.000263,  48.794
   640.6,0.000492,0.000398,0.003946,0.000276,  48.798
   640.8,0.000496,0.000395,0.003862,0.000263,  48.800
   641.0,0.000498,0.000392,0.003847,0.000263,  48.798
   641.2,0.000492,0.000394,0.003862,0.000276,  48.800
   641.4,0.000496,0.000393,0.003914,0.000263,  48.795
   641.6,0.000498,0.000395,0.004013,0.000263,  48.796
   641.8,0.000489,0.000393,0.004149,0.000276,  48.794
   642.0,0.000490,0.000394,0.004227,0.000276,  48.799
   642.2,0.000493,0.000392,0.004305,0.000276,  48.797
   642.4,0.000487,0.000393,0.004382,0.000289,  48.799
   642.6,0.000493,0.000393,0.004471,0.000289,  48.800
   642.8,0.000496,0.000397,0.004543,0.000276,  48.797
   643.0,0.000487,0.000395,0.004621,0.000289,  48.793
   643.2,0.000490,0.000397,0.004631,0.000289,  48.797
   643.4,0.000493,0.000394,0.004595,0.000276,  48.795
   643.6,0.000487,0.000392,0.004517,0.000289,  48.794
   643.8,0.000490,0.000392,0.004480,0.000289,  48.791
   644.0,0.000493,0.000389,0.004444,0.000276,  48.792
   644.2,0.000487,0.000392,0.004407,0.000289,  48.797
   644.4,0.000487,0.000392,0.004412,0.000289,  48.794
   644.6,0.000489,0.000392,0.004438,0.000276,  48.793
   644.8,0.000489,0.000390,0.004470,0.000289,  48.795
   645.0,0.000492,0.000393,0.004496,0.000289,  48.793
   645.2,0.000492,0.000390,0.004522,0.000276,  48.794
   645.4,0.000485,0.000389,0.004537,0.000289,  48.792
   645.6,0.000489,0.000393,0.004474,0.000289,  48.794
   645.8,0.000487,0.000393,0.004371,0.000276,  48.795
   646.0,0.000480,0.000390,0.004220,0.000289,  48.795
   646.2,0.000477,0.000390,0.004047,0.000289,  48.792
   646.4,0.000481,0.000385,0.003855,0.000276,  48.795
   646.6,0.000484,0.000387,0.003633,0.000289,  48.794
   646.8,0.000481,0.000387,0.003659,0.000289,  48.796
   647.0,0.000481,0.000385,0.003778,0.000276,  48.795
   647.2,0.000484,0.000381,0.004017,0.000276,  48.789
   647.4,0.000484,0.000387,0.004105,0.000289,  48.797
   647.6,0.000484,0.000387,0.004157,0.000276,  48.795
   647.8,0.000487,0.000386,0.004183,0.000276,  48.798
   648.0,0.000489,0.000387,0.004114,0.000289,  48.795
   648.2,0.000489,0.000385,0.003968,0.000276,  48.800
   648.4,0.000492,0.000385,0.003772,0.000276,  48.803
   648.6,0.000492,0.000391,0.003756,0.000289,  48.804
   648.8,0.000489,0.000387,0.003798,0.000289,  48.804
   649.0,0.000492,0.000389,0.003896,0.000276,  48.808
   649.2,0.000492,0.000390,0.004053,0.000289,  48.807
   649.4,0.000492,0.000387,0.003861,0.000289,  48.809
   649.6,0.000492,0.000387,0.003566,0.000276,  48.807
   649.8,0.000492,0.000386,0.003162,0.000289,  48.809
   650.0,0.000492,0.000383,0.003209,0.000289,  48.810
   650.2,0.000492,0.000385,0.003412,0.000276,  48.810
   650.4,0.000492,0.000390,0.003780,0.000289,  48.809
   650.6,0.000489,0.000387,0.003931,0.000289,  48.811
   650.8,0.000492,0.000391,0.004035,0.000276,  48.814
   651.0,0.000492,0.000394,0.004112,0.000289,  48.808
   651.2,0.000492,0.000396,0.004076,0.000289,  48.813
   651.4,0.000494,0.000396,0.003956,0.000276,  48.810
   651.6,0.000497,0.000396,0.003758,0.000289,  48.812
   651.8,0.000497,0.000394,0.003808,0.000289,  48.813
   652.0,0.000500,0.000389,0.003964,0.000289,  48.809
   652.2,0.000502,0.000392,0.004203,0.000302,  48.810
   652.4,0.000497,0.000393,0.004217,0.000302,  48.812
   652.6,0.000497,0.000390,0.004197,0.000302,  48.810
   652.8,0.000500,0.000394,0.004125,0.000302,  48.808
   653.0,0.000500,0.000400,0.004015,0.000302,  48.808
   653.2,0.000500,0.000397,0.003871,0.000289,  48.810
   653.4,0.000502,0.000397,0.003674,0.000276,  48.808
   653.6,0.000502,0.000399,0.003575,0.000276,  48.811
   653.8,0.000502,0.000397,0.003508,0.000289,  48.810
   654.0,0.000505,0.000398,0.003441,0.000289,  48.806
   654.2,0.000502,0.000395,0.003508,0.000289,  48.811
   654.4,0.000500,0.000390,0.003654,0.000289,  48.812
   654.6,0.000497,0.000394,0.003873,0.000289,  48.813
   654.8,0.000498,0.000394,0.003457,0.000289,  48.806
   655.0,0.000496,0.000391,0.002774,0.000289,  48.812
   655.2,0.000496,0.000391,0.001813,0.000289,  48.809
   655.4,0.000498,0.000391,0.001720,0.000289,  48.810
   655.6,0.000501,0.000393,0.001900,0.000289,  48.812
   655.8,0.000500,0.000395,0.002370,0.000289,  48.807
   656.0,0.000502,0.000397,0.002520,0.000289,  48.811
   656.2,0.000498,0.000396,0.002634,0.000289,  48.812
   656.4,0.000501,0.000394,0.002733,0.000289,  48.814
   656.6,0.000492,0.000396,0.002815,0.000289,  48.813
   656.8,0.000498,0.000396,0.002892,0.000289,  48.816
   657.0,0.000501,0.000392,0.002944,0.000289,  48.815
   657.2,0.000492,0.000398,0.003181,0.000289,  48.815
   657.4,0.000498,0.000398,0.003496,0.000289,  48.818
   657.6,0.000498,0.000398,0.003895,0.000289,  48.817
   657.8,0.000496,0.000395,0.004004,0.000289,  48.815
   658.0,0.000506,0.000395,0.004020,0.000289,  48.816
   658.2,0.000506,0.000396,0.003901,0.000289,  48.820
   658.4,0.000500,0.000401,0.003948,0.000289,  48.817
   658.6,0.000506,0.000397,0.004021,0.000289,  48.820
   658.8,0.000506,0.000397,0.004099,0.000289,  48.821
   659.0,0.000500,0.000401,0.004209,0.000289,  48.824
   659.2,0.000506,0.000397,0.004328,0.000289,  48.825
   659.4,0.000509,0.000399,0.004462,0.000289,  48.821
   659.6,0.000502,0.000403,0.004612,0.000289,  48.826
   659.8,0.000505,0.000401,0.004456,0.000289,  48.828
   660.0,0.000508,0.000399,0.004157,0.000289,  48.827
   660.2,0.000505,0.000403,0.003702,0.000289,  48.828
   660.4,0.000511,0.000400,0.003692,0.000289,  48.829
   660.6,0.000511,0.000399,0.003837,0.000289,  48.828
   660.8,0.000505,0.000403,0.004143,0.000302,  48.829
   661.0,0.000509,0.000405,0.004251,0.000302,  48.827
   661.2,0.000509,0.000400,0.004355,0.000302,  48.832
   661.4,0.000502,0.000402,0.004444,0.000315,  48.832
   661.6,0.000506,0.000400,0.004506,0.000315,  48.836
   661.8,0.000506,0.000400,0.004528,0.000302,  48.834
   662.0,0.000502,0.000400,0.004512,0.000302,  48.834
   662.2,0.000502,0.000403,0.004523,0.000302,  48.834
   662.4,0.000502,0.000399,0.004518,0.000302,  48.832
   662.6,0.000502,0.000401,0.004498,0.000289,  48.834
   662.8,0.000500,0.000402,0.004524,0.000289,  48.830
   663.0,0.000500,0.000399,0.004565,0.000289,  48.834
   663.2,0.000500,0.000401,0.004622,0.000298,  48.839
   663.4,0.000497,0.000405,0.004559,0.000308,  48.835
   663.6,0.000500,0.000404,0.004439,0.000304,  48.839
   663.8,0.000502,0.000402,0.004277,0.000317,  48.841
   664.0,0.000505,0.000406,0.004172,0.000343,  48.838
   664.2,0.000508,0.000403,0.004058,0.000320,  48.837
   664.4,0.000506,0.000407,0.003960,0.000298,  48.840
   664.6,0.000509,0.000407,0.004006,0.000298,  48.838
   664.8,0.000509,0.000407,0.004125,0.000333,  48.835
   665.0,0.000505,0.000407,0.004323,0.000311,  48.833
   665.2,0.000512,0.000408,0.004313,0.000298,  48.834
   665.4,0.000512,0.000402,0.004229,0.000298,  48.839
   665.6,0.000512,0.000405,0.004079,0.000311,  48.839
   665.8,0.000505,0.000409,0.003975,0.000298,  48.836
   666.0,0.000509,0.000405,0.003840,0.000298,  48.837
   666.2,0.000506,0.000406,0.003706,0.000311,  48.841
   666.4,0.000500,0.000410,0.003654,0.000311,  48.839
   666.6,0.000506,0.000409,0.003628,0.000311,  48.838
   666.8,0.000509,0.000407,0.003649,0.000311,  48.840
   667.0,0.000500,0.000405,0.003738,0.000289,  48.840
   667.2,0.000501,0.000402,0.003862,0.000311,  48.838
   667.4,0.000504,0.000404,0.004056,0.000311,  48.841
   667.6,0.000501,0.000406,0.004160,0.000324,  48.840
   667.8,0.000505,0.000402,0.004253,0.000311,  48.842
   668.0,0.000508,0.000400,0.004309,0.000311,  48.841
   668.2,0.000505,0.000397,0.004366,0.000289,  48.843
   668.4,0.000505,0.000395,0.004262,0.000289,  48.842
   668.6,0.000505,0.000396,0.004076,0.000289,  48.844
   668.8,0.000505,0.000399,0.003806,0.000254,  48.844
   669.0,0.000502,0.000396,0.003817,0.000254,  48.843
   669.2,0.000502,0.000392,0.003916,0.000289,  48.841
   669.4,0.000505,0.000392,0.004097,0.000289,  48.840
   669.6,0.000502,0.000387,0.004164,0.000289,  48.841
   669.8,0.000502,0.000383,0.004216,0.000289,  48.843
   670.0,0.000502,0.000390,0.004248,0.000289,  48.841
   670.2,0.000500,0.000388,0.004309,0.000289,  48.842
   670.4,0.000501,0.000386,0.004398,0.000289,  48.845
   670.6,0.000499,0.000389,0.004476,0.000289,  48.847
   670.8,0.000502,0.000391,0.004506,0.000289,  48.842
   671.0,0.000495,0.000391,0.004523,0.000289,  48.843
   671.2,0.000498,0.000392,0.004508,0.000289,  48.845
   671.4,0.000499,0.000393,0.004512,0.000289,  48.843
   671.6,0.000498,0.000388,0.004529,0.000289,  48.840
   671.8,0.000498,0.000393,0.004539,0.000289,  48.842
   672.0,0.000507,0.000393,0.004570,0.000289,  48.843
   672.2,0.000510,0.000386,0.004596,0.000289,  48.847
   672.4,0.000513,0.000391,0.004627,0.000289,  48.842
   672.6,0.000510,0.000392,0.004579,0.000289,  48.842
   672.8,0.000510,0.000391,0.004491,0.000289,  48.841
   673.0,0.000509,0.000393,0.004350,0.000289,  48.845
   673.2,0.000509,0.000398,0.004340,0.000289,  48.841
   673.4,0.000505,0.000397,0.004376,0.000289,  48.841
   673.6,0.000514,0.000399,0.004454,0.000289,  48.844
   673.8,0.000505,0.000404,0.004288,0.000289,  48.843
   674.0,0.000511,0.000399,0.004024,0.000289,  48.842
   674.2,0.000505,0.000400,0.003661,0.000289,  48.843
   674.4,0.000505,0.000400,0.003739,0.000289,  48.847
   674.6,0.000502,0.000398,0.003956,0.000289,  48.844
   674.8,0.000505,0.000400,0.004345,0.000289,  48.847
   675.0,0.000505,0.000404,0.004366,0.000289,  48.845
   675.2,0.000505,0.000400,0.004251,0.000289,  48.847
   675.4,0.000508,0.000402,0.004029,0.000289,  48.848
   675.6,0.000505,0.000409,0.003992,0.000289,  48.846
   675.8,0.000511,0.000409,0.003998,0.000289,  48.849
   676.0,0.000514,0.000407,0.004018,0.000289,  48.844
   676.2,0.000508,0.000407,0.004070,0.000289,  48.844
   676.4,0.000514,0.000408,0.004164,0.000289,  48.848
   676.6,0.000517,0.000408,0.004269,0.000289,  48.845
   676.8,0.000510,0.000404,0.004358,0.000289,  48.843
   677.0,0.000514,0.000400,0.004451,0.000289,  48.845
   677.2,0.000514,0.000405,0.004528,0.000289,  48.843
   677.4,0.000508,0.000410,0.004615,0.000289,  48.840
   677.6,0.000509,0.000407,0.004578,0.000289,  48.840
   677.8,0.000509,0.000404,0.004474,0.000289,  48.847
   678.0,0.000505,0.000399,0.004325,0.000289,  48.839
   678.2,0.000502,0.000398,0.004346,0.000289,  48.843
   678.4,0.000502,0.000397,0.004424,0.000289,  48.844
   678.6,0.000505,0.000400,0.004553,0.000289,  48.843
   678.8,0.000502,0.000397,0.004599,0.000289,  48.845
   679.0,0.000502,0.000396,0.004641,0.000289,  48.841
   679.2,0.000502,0.000401,0.004673,0.000289,  48.840
   679.4,0.000500,0.000403,0.004604,0.000289,  48.841
   679.6,0.000500,0.000400,0.004468,0.000289,  48.840
   679.8,0.000500,0.000401,0.004297,0.000289,  48.842
   680.0,0.000497,0.000397,0.004220,0.000289,  48.839
   680.2,0.000497,0.000397,0.004162,0.000289,  48.842
   680.4,0.000497,0.000392,0.004131,0.000289,  48.841
   680.6,0.000494,0.000391,0.004146,0.000289,  48.843
   680.8,0.000494,0.000391,0.004198,0.000289,  48.838
   681.0,0.000494,0.000394,0.004297,0.000289,  48.838
   681.2,0.000501,0.000395,0.004157,0.000289,  48.839
   681.4,0.000498,0.000392,0.003907,0.000289,  48.839
   681.6,0.000492,0.000396,0.003543,0.000289,  48.840
   681.8,0.000498,0.000395,0.003403,0.000289,  48.835
   682.0,0.000498,0.000394,0.003310,0.000276,  48.834
   682.2,0.000494,0.000390,0.003269,0.000289,  48.837
   682.4,0.000504,0.000392,0.003336,0.000289,  48.836
   682.6,0.000504,0.000392,0.003486,0.000276,  48.837
   682.8,0.000497,0.000390,0.003708,0.000289,  48.840
   683.0,0.000498,0.000393,0.003837,0.000289,  48.834
   683.2,0.000498,0.000394,0.003962,0.000276,  48.835
   683.4,0.000496,0.000397,0.004072,0.000289,  48.830
   683.6,0.000498,0.000396,0.004041,0.000289,  48.830
   683.8,0.000496,0.000391,0.003912,0.000289,  48.835
   684.0,0.000498,0.000394,0.003688,0.000289,  48.836
   684.2,0.000496,0.000394,0.003740,0.000289,  48.838
   684.4,0.000490,0.000391,0.003875,0.000289,  48.837
   684.6,0.000493,0.000393,0.004093,0.000289,  48.830
   684.8,0.000484,0.000391,0.004176,0.000289,  48.837
   685.0,0.000488,0.000386,0.004238,0.000289,  48.834
   685.2,0.000490,0.000391,0.004275,0.000289,  48.838
   685.4,0.000484,0.000395,0.004087,0.000289,  48.836
   685.6,0.000490,0.000395,0.003787,0.000289,  48.836
   685.8,0.000493,0.000393,0.003351,0.000289,  48.834
   686.0,0.000489,0.000401,0.003222,0.000289,  48.838
   686.2,0.000496,0.000400,0.003181,0.000289,  48.835
   686.4,0.000501,0.000395,0.003190,0.000289,  48.832
   686.6,0.000494,0.000393,0.003253,0.000289,  48.833
   686.8,0.000501,0.000392,0.003377,0.000289,  48.833
   687.0,0.000504,0.000396,0.003543,0.000289,  48.832
   687.2,0.000497,0.000395,0.003767,0.000289,  48.833
   687.4,0.000501,0.000393,0.003896,0.000289,  48.831
   687.6,0.000501,0.000397,0.004011,0.000289,  48.833
   687.8,0.000494,0.000400,0.004125,0.000289,  48.829
   688.0,0.000501,0.000397,0.004229,0.000289,  48.829
   688.2,0.000501,0.000401,0.004317,0.000289,  48.829
   688.4,0.000494,0.000404,0.004406,0.000289,  48.827
   688.6,0.000501,0.000406,0.004458,0.000289,  48.827
   688.8,0.000501,0.000408,0.004462,0.000289,  48.828
   689.0,0.000497,0.000403,0.004441,0.000302,  48.826
   689.2,0.000506,0.000398,0.004301,0.000302,  48.826
   689.4,0.000506,0.000398,0.004083,0.000302,  48.828
   689.6,0.000500,0.000396,0.003787,0.000315,  48.829
   689.8,0.000504,0.000399,0.003802,0.000315,  48.824
   690.0,0.000504,0.000399,0.003932,0.000302,  48.825
   690.2,0.000500,0.000401,0.004186,0.000302,  48.826
   690.4,0.000506,0.000403,0.004296,0.000302,  48.823
   690.6,0.000506,0.000404,0.004374,0.000302,  48.822
   690.8,0.000500,0.000400,0.004420,0.000302,  48.822
   691.0,0.000506,0.000401,0.004456,0.000302,  48.820
   691.2,0.000506,0.000397,0.004452,0.000302,  48.820
   691.4,0.000500,0.000393,0.004411,0.000302,  48.816
   691.6,0.000504,0.000397,0.004482,0.000302,  48.820
   691.8,0.000501,0.000395,0.004580,0.000302,  48.819
   692.0,0.000494,0.000394,0.004704,0.000302,  48.823
   692.2,0.000498,0.000395,0.004715,0.000302,  48.822
   692.4,0.000498,0.000391,0.004652,0.000302,  48.821
   692.6,0.000498,0.000391,0.004556,0.000302,  48.821
   692.8,0.000498,0.000391,0.004530,0.000302,  48.815
   693.0,0.000498,0.000386,0.004504,0.000302,  48.814
   693.2,0.000498,0.000389,0.004499,0.000302,  48.817
   693.4,0.000498,0.000387,0.004514,0.000302,  48.822
   693.6,0.000498,0.000386,0.004524,0.000302,  48.815
   693.8,0.000498,0.000388,0.004565,0.000289,  48.816
   694.0,0.000492,0.000387,0.004591,0.000289,  48.813
   694.2,0.000492,0.000387,0.004596,0.000289,  48.813
   694.4,0.000492,0.000390,0.004596,0.000276,  48.809
   694.6,0.000492,0.000389,0.004512,0.000276,  48.814
   694.8,0.000492,0.000388,0.004397,0.000289,  48.814
   695.0,0.000492,0.000392,0.004216,0.000289,  48.813
   695.2,0.000489,0.000393,0.004184,0.000289,  48.812
   695.4,0.000487,0.000395,0.004226,0.000289,  48.817
   695.6,0.000489,0.000391,0.004305,0.000289,  48.812
   695.8,0.000487,0.000388,0.004222,0.000289,  48.815
   696.0,0.000487,0.000381,0.004092,0.000276,  48.812
   696.2,0.000489,0.000378,0.003883,0.000276,  48.810
   696.4,0.000487,0.000382,0.003862,0.000289,  48.818
   696.6,0.000487,0.000380,0.003909,0.000289,  48.818
   696.8,0.000489,0.000376,0.004013,0.000276,  48.813
   697.0,0.000484,0.000384,0.004174,0.000289,  48.814
   697.2,0.000481,0.000381,0.004231,0.000289,  48.810
   697.4,0.000481,0.000381,0.004278,0.000276,  48.810
   697.6,0.000488,0.000380,0.004304,0.000289,  48.810
   697.8,0.000492,0.000377,0.004220,0.000289,  48.811
   698.0,0.000494,0.000373,0.004069,0.000276,  48.810
   698.2,0.000497,0.000376,0.003856,0.000289,  48.808
   698.4,0.000497,0.000379,0.003856,0.000289,  48.813
   698.6,0.000499,0.000377,0.003923,0.000276,  48.811
   698.8,0.000493,0.000376,0.004080,0.000289,  48.814
   699.0,0.000493,0.000378,0.003961,0.000289,  48.808
   699.2,0.000496,0.000374,0.003722,0.000276,  48.809
   699.4,0.000487,0.000379,0.003373,0.000289,  48.811
   699.6,0.000484,0.000380,0.003393,0.000289,  48.811
   699.8,0.000487,0.000382,0.003533,0.000276,  48.810
   700.0,0.000489,0.000387,0.003798,0.000289,  48.813
   700.2,0.000496,0.000389,0.003804,0.000289,  48.809
   700.4,0.000498,0.000390,0.003727,0.000276,  48.812
   700.6,0.000489,0.000392,0.003561,0.000289,  48.815
   700.8,0.000493,0.000391,0.003623,0.000289,  48.811
   701.0,0.000496,0.000391,0.003763,0.000276,  48.811
   701.2,0.000487,0.000391,0.003960,0.000289,  48.813
   701.4,0.000487,0.000389,0.003865,0.000289,  48.813
   701.6,0.000489,0.000389,0.003668,0.000276,  48.807
   701.8,0.000487,0.000387,0.003368,0.000289,  48.814
   702.0,0.000493,0.000390,0.003393,0.000289,  48.808
   702.2,0.000493,0.000387,0.003508,0.000276,  48.812
   702.4,0.000496,0.000391,0.003742,0.000289,  48.814
   702.6,0.000496,0.000391,0.003907,0.000289,  48.814
   702.8,0.000496,0.000389,0.004099,0.000276,  48.811
   703.0,0.000498,0.000385,0.004294,0.000289,  48.810
   703.2,0.000498,0.000387,0.004414,0.000289,  48.810
   703.4,0.000496,0.000389,0.004481,0.000276,  48.811
   703.6,0.000498,0.000391,0.004513,0.000289,  48.812
   703.8,0.000493,0.000390,0.004549,0.000289,  48.813
   704.0,0.000494,0.000385,0.004545,0.000276,  48.813
   704.2,0.000497,0.000389,0.004520,0.000276,  48.816
   704.4,0.000494,0.000391,0.004505,0.000289,  48.817
   704.6,0.000494,0.000391,0.004468,0.000276,  48.816
   704.8,0.000503,0.000389,0.004427,0.000276,  48.814
   705.0,0.000506,0.000394,0.004473,0.000289,  48.813
   705.2,0.000509,0.000396,0.004566,0.000276,  48.812
   705.4,0.000518,0.000400,0.004690,0.000276,  48.815
   705.6,0.000518,0.000397,0.004684,0.000289,  48.816
   705.8,0.000509,0.000395,0.004664,0.000289,  48.813
   706.0,0.000511,0.000394,0.004575,0.000289,  48.813
   706.2,0.000509,0.000393,0.004479,0.000289,  48.815
   706.4,0.000506,0.000393,0.004245,0.000289,  48.811
   706.6,0.000509,0.000391,0.003950,0.000289,  48.814
   706.8,0.000509,0.000399,0.003578,0.000289,  48.815
   707.0,0.000511,0.000398,0.003505,0.000289,  48.814
   707.2,0.000514,0.000397,0.003541,0.000289,  48.816
   707.4,0.000516,0.000399,0.003685,0.000289,  48.815
   707.6,0.000519,0.000397,0.003623,0.000289,  48.818
   707.8,0.000522,0.000398,0.003498,0.000289,  48.813
   708.0,0.000524,0.000400,0.003328,0.000289,  48.818
   708.2,0.000522,0.000399,0.003442,0.000289,  48.814
   708.4,0.000522,0.000394,0.003654,0.000289,  48.820
   708.6,0.000524,0.000399,0.003969,0.000289,  48.820
   708.8,0.000522,0.000402,0.004098,0.000289,  48.815
   709.0,0.000522,0.000401,0.004197,0.000289,  48.816
   709.2,0.000524,0.000405,0.004265,0.000289,  48.813
   709.4,0.000528,0.000407,0.004384,0.000289,  48.816
   709.6,0.000515,0.000404,0.004497,0.000289,  48.819
   709.8,0.000513,0.000406,0.004627,0.000289,  48.818
   710.0,0.000507,0.000402,0.004539,0.000289,  48.819
   710.2,0.000501,0.000398,0.004342,0.000289,  48.815
   710.4,0.000501,0.000396,0.004041,0.000302,  48.822
   710.6,0.000507,0.000396,0.003854,0.000302,  48.819
   710.8,0.000514,0.000394,0.003677,0.000302,  48.812
   711.0,0.000514,0.000394,0.003522,0.000315,  48.816
   711.2,0.000514,0.000392,0.003444,0.000315,  48.815
   711.4,0.000518,0.000392,0.003407,0.000302,  48.815
   711.6,0.000518,0.000391,0.003429,0.000302,  48.815
   711.8,0.000511,0.000391,0.003517,0.000302,  48.817
   712.0,0.000511,0.000392,0.003652,0.000302,  48.811
   712.2,0.000509,0.000391,0.003840,0.000289,  48.813
   712.4,0.000509,0.000391,0.003969,0.000289,  48.813
   712.6,0.000506,0.000393,0.004073,0.000289,  48.812
   712.8,0.000509,0.000392,0.004166,0.000276,  48.816
   713.0,0.000506,0.000391,0.004223,0.000276,  48.814
   713.2,0.000503,0.000391,0.004259,0.000289,  48.812
   713.4,0.000506,0.000390,0.004259,0.000289,  48.816
   713.6,0.000509,0.000389,0.004331,0.000289,  48.814
   713.8,0.000509,0.000391,0.004429,0.000289,  48.816
   714.0,0.000511,0.000395,0.004559,0.000289,  48.813
   714.2,0.000509,0.000403,0.004574,0.000289,  48.816
   714.4,0.000503,0.000403,0.004554,0.000289,  48.811
   714.6,0.000499,0.000401,0.004493,0.000289,  48.813
   714.8,0.000499,0.000397,0.004410,0.000289,  48.813
   715.0,0.000497,0.000395,0.004279,0.000289,  48.810
   715.2,0.000493,0.000395,0.004134,0.000289,  48.820
   715.4,0.000493,0.000392,0.003942,0.000289,  48.811
   715.6,0.000499,0.000389,0.003937,0.000289,  48.813
   715.8,0.000502,0.000391,0.003974,0.000289,  48.815
   716.0,0.000499,0.000395,0.004079,0.000289,  48.813
   716.2,0.000499,0.000395,0.004131,0.000289,  48.812
   716.4,0.000509,0.000391,0.004172,0.000276,  48.813
   716.6,0.000503,0.000397,0.004219,0.000289,  48.814
   716.8,0.000501,0.000397,0.004068,0.000289,  48.812
   717.0,0.000503,0.000396,0.003820,0.000276,  48.815
   717.2,0.000503,0.000398,0.003456,0.000289,  48.815
   717.4,0.000499,0.000397,0.003269,0.000289,  48.811
   717.6,0.000502,0.000397,0.003124,0.000276,  48.817
   717.8,0.000499,0.000395,0.003010,0.000289,  48.814
   718.0,0.000506,0.000398,0.002974,0.000289,  48.814
   718.2,0.000515,0.000393,0.002978,0.000276,  48.817
   718.4,0.000512,0.000394,0.003041,0.000289,  48.814
   718.6,0.000503,0.000392,0.003185,0.000289,  48.814
   718.8,0.000506,0.000387,0.003386,0.000276,  48.812
   719.0,0.000506,0.000392,0.003672,0.000289,  48.813
   719.2,0.000503,0.000390,0.003854,0.000289,  48.813
   719.4,0.000506,0.000387,0.003998,0.000276,  48.816
   719.6,0.000506,0.000392,0.004118,0.000289,  48.813
   719.8,0.000503,0.000392,0.004070,0.000289,  48.810
   720.0,0.000506,0.000389,0.003915,0.000276,  48.813
   720.2,0.000509,0.000391,0.003656,0.000289,  48.815
   720.4,0.000509,0.000391,0.003630,0.000289,  48.814
   720.6,0.000505,0.000386,0.003634,0.000289,  48.814
   720.8,0.000499,0.000391,0.003718,0.000289,  48.808
   721.0,0.000494,0.000391,0.003822,0.000289,  48.812
   721.2,0.000494,0.000386,0.003951,0.000276,  48.812
   721.4,0.000494,0.000387,0.004134,0.000289,  48.810
   721.6,0.000488,0.000383,0.004218,0.000289,  48.813
   721.8,0.000497,0.000383,0.004260,0.000276,  48.814
   722.0,0.000499,0.000386,0.004260,0.000289,  48.813
   722.2,0.000499,0.000393,0.004323,0.000289,  48.815
   722.4,0.000499,0.000390,0.004401,0.000276,  48.814
   722.6,0.000502,0.000389,0.004473,0.000289,  48.812
   722.8,0.000499,0.000389,0.004545,0.000289,  48.813
   723.0,0.000499,0.000391,0.004627,0.000289,  48.811
   723.2,0.000502,0.000398,0.004721,0.000289,  48.816
   723.4,0.000499,0.000405,0.004721,0.000289,  48.809
   723.6,0.000499,0.000406,0.004669,0.000289,  48.810
