Run Name,Run 4
Run Date,04:38:01 PM   02-09-15
Method Name,18% C group 2 April 7 2014.10
Export Format Version, 1.00
Method ID, 2118
Points/Second, 5.00
Number of Records,   3030
Offset from Run Start Time,00:00:00
Run End Time,00:10:06
Time,Second
QuadTec 1, (280.0 nm), AU
QuadTec 2, (260.0 nm), AU
Gradient Pump,<Not Selected>
QuadTec 3, (214.0 nm), AU
QuadTec 4, (405.0 nm), AU
Conductivity,mS/cm
Trace 6,<Not Available>
GP Pressure,<Not Selected>
Volume,<Not Selected>
Fraction,<Not Available>
Time,QuadTec 1,QuadTec 2,QuadTec 3,QuadTec 4,Conductivity
     0.0,0.000189,0.000000,0.001035,0.000187,  33.203
     0.2,0.000180,0.000000,0.001060,0.000200,  33.199
     0.4,0.000074,0.000000,0.001060,0.000235,  33.191
     0.6,0.000050,0.000000,0.001015,0.000291,  33.192
     0.8,0.000000,0.000000,0.001595,-0.006552,  33.185
     1.0,0.000000,0.000000,0.002491,0.000000,  33.184
     1.2,0.000000,0.000000,0.000000,0.000000,  33.183
     1.4,0.000000,0.000000,0.000000,0.000000,  33.183
     1.6,0.000000,0.000000,0.000000,0.000000,  33.182
     1.8,0.000000,0.000000,0.000000,0.000000,  33.189
     2.0,0.000000,0.000000,0.000000,0.000000,  33.191
     2.2,0.000000,0.000000,0.000000,0.000000,  33.195
     2.4,0.000000,0.000000,0.000000,0.000000,  33.200
     2.6,0.000000,0.000000,0.000000,0.000000,  33.205
     2.8,0.000000,0.000000,0.000000,0.000000,  33.204
     3.0,0.000000,0.000000,0.000000,0.000000,  33.214
     3.2,0.000000,0.000000,0.000000,0.000000,  33.216
     3.4,0.000000,0.000000,0.000000,0.000000,  33.213
     3.6,0.000000,0.000000,0.000000,0.000000,  33.219
     3.8,0.000000,0.000000,0.000000,0.000000,  33.215
     4.0,0.000000,0.000057,0.000000,0.000000,  33.218
     4.2,0.000056,0.000045,0.000000,0.000000,  33.220
     4.4,0.000016,0.000031,0.000000,0.000000,  33.214
     4.6,-0.000022,0.000025,0.000000,0.000000,  33.208
     4.8,-0.000040,0.000013,0.000000,0.000000,  33.198
     5.0,-0.000067,-0.000006,0.000000,0.000000,  33.188
     5.2,-0.000074,-0.000014,0.000000,0.000000,  33.177
     5.4,-0.000088,-0.000030,0.000019,0.000074,  33.171
     5.6,-0.000092,-0.000030,0.000057,0.000013,  33.165
     5.8,-0.000083,-0.000021,0.000095,-0.000074,  33.160
     6.0,-0.000064,-0.000008,0.000160,-0.000078,  33.155
     6.2,-0.000065,-0.000004,0.000212,-0.000139,  33.155
     6.4,-0.000068,0.000007,0.000283,-0.000152,  33.154
     6.6,-0.000064,0.000012,0.000406,-0.000130,  33.152
     6.8,-0.000115,-0.000018,0.000573,-0.000165,  33.151
     7.0,-0.000182,-0.000065,0.000760,-0.000165,  33.154
     7.2,-0.000274,-0.000128,0.000730,-0.000117,  33.164
     7.4,-0.000314,-0.000176,0.000616,-0.000152,  33.168
     7.6,-0.000336,-0.000219,0.000420,-0.000178,  33.179
     7.8,-0.000350,-0.000260,0.000492,-0.000182,  33.187
     8.0,-0.000347,-0.000265,0.000646,-0.000256,  33.194
     8.2,-0.000325,-0.000243,0.000870,-0.000322,  33.199
     8.4,-0.000297,-0.000209,0.000914,-0.000413,  33.202
     8.6,-0.000249,-0.000189,0.000913,-0.000413,  33.204
     8.8,-0.000219,-0.000159,0.000874,-0.000374,  33.209
     9.0,-0.000188,-0.000127,0.000751,-0.000322,  33.212
     9.2,-0.000154,-0.000106,0.000552,-0.000270,  33.208
     9.4,-0.000135,-0.000084,0.000308,-0.000230,  33.208
     9.6,-0.000118,-0.000062,0.000185,-0.000191,  33.204
     9.8,-0.000110,-0.000066,0.000095,-0.000152,  33.194
    10.0,-0.000124,-0.000088,0.000017,-0.000126,  33.195
    10.2,-0.000149,-0.000120,-0.000060,-0.000113,  33.182
    10.4,-0.000188,-0.000127,-0.000137,-0.000113,  33.171
    10.6,-0.000191,-0.000124,-0.000214,-0.000113,  33.162
    10.8,-0.000185,-0.000116,-0.000170,-0.000139,  33.144
    11.0,-0.000167,-0.000108,-0.000094,-0.000152,  33.140
    11.2,-0.000160,-0.000086,0.000033,-0.000178,  33.142
    11.4,-0.000143,-0.000067,0.000149,-0.000239,  33.139
    11.6,-0.000122,-0.000067,0.000277,-0.000230,  33.139
    11.8,-0.000143,-0.000078,0.000413,-0.000265,  33.137
    12.0,-0.000171,-0.000094,0.000555,-0.000265,  33.132
    12.2,-0.000209,-0.000148,0.000716,-0.000217,  33.138
    12.4,-0.000273,-0.000213,0.000876,-0.000217,  33.145
    12.6,-0.000344,-0.000305,0.001050,-0.000217,  33.153
    12.8,-0.000424,-0.000337,0.001250,-0.000217,  33.169
    13.0,-0.000442,-0.000336,0.001437,-0.000243,  33.177
    13.2,-0.000425,-0.000324,0.001636,-0.000296,  33.184
    13.4,-0.000382,-0.000315,0.001688,-0.000361,  33.193
    13.6,-0.000352,-0.000295,0.001650,-0.000400,  33.193
    13.8,-0.000305,-0.000267,0.001547,-0.000439,  33.196
    14.0,-0.000254,-0.000230,0.001431,-0.000478,  33.201
    14.2,-0.000222,-0.000210,0.001250,-0.000465,  33.201
    14.4,-0.000186,-0.000176,0.001038,-0.000400,  33.203
    14.6,-0.000152,-0.000143,0.000442,-0.000322,  33.200
    14.8,-0.000150,-0.000126,-0.000389,-0.000270,  33.198
    15.0,-0.000164,-0.000122,-0.001421,-0.000230,  33.194
    15.2,-0.000190,-0.000121,-0.001587,-0.000191,  33.184
    15.4,-0.000205,-0.000130,-0.001429,-0.000152,  33.169
    15.6,-0.000216,-0.000143,-0.000953,-0.000126,  33.149
    15.8,-0.000220,-0.000167,-0.000814,-0.000113,  33.124
    16.0,-0.000219,-0.000160,-0.000675,-0.000126,  33.122
    16.2,-0.000202,-0.000148,-0.000554,-0.000152,  33.116
    16.4,-0.000170,-0.000124,-0.000433,-0.000230,  33.112
    16.6,-0.000168,-0.000109,-0.000343,-0.000256,  33.103
    16.8,-0.000163,-0.000101,-0.000233,-0.000256,  33.098
    17.0,-0.000156,-0.000086,-0.000041,-0.000270,  33.100
    17.2,-0.000187,-0.000116,0.000177,-0.000256,  33.097
    17.4,-0.000229,-0.000165,0.000454,-0.000256,  33.099
    17.6,-0.000300,-0.000233,0.000270,-0.000243,  33.110
    17.8,-0.000374,-0.000283,-0.000150,-0.000243,  33.125
    18.0,-0.000414,-0.000329,-0.000759,-0.000256,  33.139
    18.2,-0.000445,-0.000373,-0.000612,-0.000283,  33.152
    18.4,-0.000458,-0.000378,-0.000178,-0.000335,  33.155
    18.6,-0.000445,-0.000352,0.000524,-0.000413,  33.165
    18.8,-0.000409,-0.000301,0.000709,-0.000491,  33.180
    19.0,-0.000340,-0.000271,0.000785,-0.000491,  33.184
    19.2,-0.000308,-0.000242,0.000752,-0.000465,  33.190
    19.4,-0.000272,-0.000198,0.000713,-0.000413,  33.197
    19.6,-0.000235,-0.000173,0.000583,-0.000361,  33.193
    19.8,-0.000210,-0.000150,0.000390,-0.000309,  33.192
    20.0,-0.000191,-0.000127,0.000254,-0.000270,  33.185
    20.2,-0.000177,-0.000136,0.000113,-0.000243,  33.178
    20.4,-0.000188,-0.000157,-0.000067,-0.000204,  33.166
    20.6,-0.000219,-0.000195,-0.000183,-0.000226,  33.144
    20.8,-0.000266,-0.000204,-0.000279,-0.000165,  33.113
    21.0,-0.000272,-0.000200,-0.000356,-0.000187,  33.099
    21.2,-0.000269,-0.000184,-0.000389,-0.000200,  33.089
    21.4,-0.000245,-0.000174,-0.000370,-0.000178,  33.085
    21.6,-0.000234,-0.000156,-0.000331,-0.000191,  33.080
    21.8,-0.000214,-0.000125,-0.000261,-0.000217,  33.079
    22.0,-0.000179,-0.000125,-0.000292,-0.000270,  33.079
    22.2,-0.000193,-0.000138,-0.000316,-0.000270,  33.083
    22.4,-0.000231,-0.000150,-0.000372,-0.000270,  33.082
    22.6,-0.000269,-0.000184,-0.000224,-0.000270,  33.086
    22.8,-0.000340,-0.000233,0.000014,-0.000256,  33.099
    23.0,-0.000427,-0.000297,0.000335,-0.000256,  33.112
    23.2,-0.000531,-0.000368,0.000573,-0.000256,  33.122
    23.4,-0.000549,-0.000390,0.000772,-0.000283,  33.141
    23.6,-0.000524,-0.000394,0.000972,-0.000335,  33.152
    23.8,-0.000458,-0.000384,0.001094,-0.000413,  33.156
    24.0,-0.000426,-0.000363,0.001145,-0.000439,  33.163
    24.2,-0.000381,-0.000332,0.001157,-0.000478,  33.174
    24.4,-0.000328,-0.000286,0.001047,-0.000517,  33.180
    24.6,-0.000299,-0.000257,0.000848,-0.000478,  33.182
    24.8,-0.000268,-0.000227,0.000572,-0.000439,  33.184
    25.0,-0.000243,-0.000197,0.000366,-0.000361,  33.182
    25.2,-0.000252,-0.000194,0.000154,-0.000309,  33.176
    25.4,-0.000272,-0.000195,-0.000058,-0.000256,  33.168
    25.6,-0.000307,-0.000207,-0.000372,-0.000230,  33.155
    25.8,-0.000319,-0.000218,-0.000761,-0.000204,  33.129
    26.0,-0.000322,-0.000230,-0.001201,-0.000178,  33.108
    26.2,-0.000312,-0.000242,-0.001240,-0.000178,  33.083
    26.4,-0.000304,-0.000236,-0.001120,-0.000191,  33.073
    26.6,-0.000293,-0.000221,-0.000847,-0.000243,  33.075
    26.8,-0.000273,-0.000195,-0.000688,-0.000309,  33.065
    27.0,-0.000247,-0.000179,-0.000509,-0.000322,  33.066
    27.2,-0.000245,-0.000160,-0.000317,-0.000322,  33.065
    27.4,-0.000234,-0.000140,-0.000093,-0.000322,  33.061
    27.6,-0.000226,-0.000172,0.000145,-0.000309,  33.061
    27.8,-0.000277,-0.000225,0.000390,-0.000296,  33.069
    28.0,-0.000347,-0.000301,0.000646,-0.000283,  33.073
    28.2,-0.000444,-0.000357,0.000916,-0.000283,  33.087
    28.4,-0.000492,-0.000405,0.001168,-0.000309,  33.105
    28.6,-0.000520,-0.000453,0.001290,-0.000335,  33.117
    28.8,-0.000534,-0.000451,0.001362,-0.000387,  33.139
    29.0,-0.000517,-0.000427,0.001343,-0.000465,  33.146
    29.2,-0.000476,-0.000374,0.001132,-0.000569,  33.152
    29.4,-0.000411,-0.000343,0.000799,-0.000595,  33.154
    29.6,-0.000372,-0.000305,0.000318,-0.000569,  33.165
    29.8,-0.000330,-0.000260,0.000081,-0.000565,  33.167
    30.0,-0.000288,-0.000231,-0.000093,-0.000465,  33.175
    30.2,-0.000255,-0.000206,-0.000229,-0.000435,  33.177
    30.4,-0.000235,-0.000182,-0.000351,-0.000396,  33.170
    30.6,-0.000215,-0.000189,-0.000454,-0.000309,  33.161
    30.8,-0.000233,-0.000209,-0.000519,-0.000256,  33.143
    31.0,-0.000263,-0.000243,-0.000564,-0.000230,  33.131
    31.2,-0.000314,-0.000251,-0.000572,-0.000191,  33.108
    31.4,-0.000319,-0.000258,-0.000547,-0.000165,  33.085
    31.6,-0.000316,-0.000253,-0.000478,-0.000178,  33.076
    31.8,-0.000296,-0.000244,-0.000466,-0.000191,  33.073
    32.0,-0.000286,-0.000232,-0.000460,-0.000204,  33.070
    32.2,-0.000266,-0.000207,-0.000466,-0.000256,  33.066
    32.4,-0.000237,-0.000188,-0.000344,-0.000309,  33.068
    32.6,-0.000255,-0.000188,-0.000171,-0.000309,  33.068
    32.8,-0.000280,-0.000194,0.000041,-0.000322,  33.067
    33.0,-0.000318,-0.000204,0.000208,-0.000309,  33.066
    33.2,-0.000392,-0.000255,0.000389,-0.000296,  33.076
    33.4,-0.000481,-0.000334,0.000538,-0.000296,  33.091
    33.6,-0.000586,-0.000429,0.000782,-0.000296,  33.101
    33.8,-0.000601,-0.000457,0.001058,-0.000322,  33.122
    34.0,-0.000576,-0.000462,0.001372,-0.000361,  33.136
    34.2,-0.000502,-0.000439,0.001431,-0.000439,  33.143
    34.4,-0.000472,-0.000414,0.001361,-0.000465,  33.154
    34.6,-0.000435,-0.000374,0.001188,-0.000504,  33.160
    34.8,-0.000403,-0.000316,0.001059,-0.000543,  33.164
    35.0,-0.000354,-0.000285,0.000911,-0.000517,  33.169
    35.2,-0.000325,-0.000249,0.000717,-0.000465,  33.178
    35.4,-0.000286,-0.000219,0.000511,-0.000374,  33.178
    35.6,-0.000237,-0.000207,0.000312,-0.000322,  33.173
    35.8,-0.000235,-0.000194,0.000061,-0.000283,  33.167
    36.0,-0.000247,-0.000191,-0.000087,-0.000243,  33.147
    36.2,-0.000271,-0.000200,-0.000184,-0.000204,  33.131
    36.4,-0.000288,-0.000217,-0.000255,-0.000165,  33.112
    36.6,-0.000300,-0.000241,-0.000351,-0.000152,  33.088
    36.8,-0.000304,-0.000239,-0.000453,-0.000165,  33.075
    37.0,-0.000305,-0.000228,-0.000561,-0.000217,  33.074
    37.2,-0.000294,-0.000206,-0.000459,-0.000283,  33.071
    37.4,-0.000272,-0.000196,-0.000287,-0.000309,  33.068
    37.6,-0.000258,-0.000181,-0.000019,-0.000322,  33.071
    37.8,-0.000249,-0.000164,0.000129,-0.000357,  33.067
    38.0,-0.000244,-0.000196,0.000271,-0.000322,  33.066
    38.2,-0.000286,-0.000237,0.000389,-0.000343,  33.065
    38.4,-0.000355,-0.000309,0.000537,-0.000343,  33.076
    38.6,-0.000453,-0.000356,0.000710,-0.000296,  33.087
    38.8,-0.000490,-0.000397,0.000865,-0.000296,  33.104
    39.0,-0.000512,-0.000436,0.001045,-0.000309,  33.114
    39.2,-0.000511,-0.000432,0.001123,-0.000335,  33.123
    39.4,-0.000492,-0.000402,0.001162,-0.000387,  33.143
    39.6,-0.000450,-0.000345,0.001163,-0.000452,  33.148
    39.8,-0.000377,-0.000315,0.001157,-0.000556,  33.158
    40.0,-0.000339,-0.000285,0.001124,-0.000556,  33.163
    40.2,-0.000297,-0.000260,0.001065,-0.000517,  33.165
    40.4,-0.000251,-0.000230,0.000962,-0.000452,  33.166
    40.6,-0.000230,-0.000202,0.000820,-0.000400,  33.174
    40.8,-0.000210,-0.000179,0.000639,-0.000348,  33.176
    41.0,-0.000190,-0.000153,0.000465,-0.000296,  33.169
    41.2,-0.000210,-0.000160,0.000254,-0.000243,  33.151
    41.4,-0.000244,-0.000177,0.000036,-0.000204,  33.135
    41.6,-0.000291,-0.000213,-0.000061,-0.000178,  33.115
    41.8,-0.000297,-0.000224,-0.000106,-0.000152,  33.087
    42.0,-0.000294,-0.000218,-0.000120,-0.000152,  33.074
    42.2,-0.000277,-0.000211,-0.000159,-0.000178,  33.075
    42.4,-0.000263,-0.000203,-0.000171,-0.000191,  33.070
    42.6,-0.000247,-0.000187,-0.000196,-0.000230,  33.069
    42.8,-0.000223,-0.000163,-0.000164,-0.000296,  33.069
    43.0,-0.000229,-0.000166,-0.000073,-0.000296,  33.071
    43.2,-0.000240,-0.000170,0.000057,-0.000296,  33.068
    43.4,-0.000272,-0.000183,0.000256,-0.000296,  33.064
    43.6,-0.000301,-0.000238,0.000519,-0.000283,  33.073
    43.8,-0.000375,-0.000307,0.000840,-0.000270,  33.088
    44.0,-0.000462,-0.000399,0.001033,-0.000270,  33.098
    44.2,-0.000561,-0.000429,0.001181,-0.000296,  33.115
    44.4,-0.000579,-0.000432,0.001279,-0.000348,  33.123
    44.6,-0.000554,-0.000409,0.001343,-0.000439,  33.144
    44.8,-0.000483,-0.000386,0.001356,-0.000465,  33.155
    45.0,-0.000445,-0.000351,0.001324,-0.000504,  33.160
    45.2,-0.000400,-0.000307,0.001246,-0.000543,  33.162
    45.4,-0.000340,-0.000271,0.001110,-0.000517,  33.168
    45.6,-0.000305,-0.000239,0.000916,-0.000465,  33.175
    45.8,-0.000269,-0.000208,0.000710,-0.000387,  33.183
    46.0,-0.000229,-0.000191,0.000479,-0.000322,  33.179
    46.2,-0.000230,-0.000177,0.000222,-0.000283,  33.174
    46.4,-0.000238,-0.000172,0.000036,-0.000243,  33.169
    46.6,-0.000257,-0.000183,-0.000137,-0.000204,  33.153
    46.8,-0.000272,-0.000199,-0.000265,-0.000178,  33.132
    47.0,-0.000288,-0.000223,-0.000680,-0.000200,  33.109
    47.2,-0.000301,-0.000226,-0.001215,-0.000152,  33.087
    47.4,-0.000300,-0.000213,-0.001876,-0.000200,  33.075
    47.6,-0.000280,-0.000192,-0.002142,-0.000239,  33.071
    47.8,-0.000248,-0.000173,-0.002275,-0.000270,  33.069
    48.0,-0.000241,-0.000147,-0.002268,-0.000283,  33.068
    48.2,-0.000224,-0.000117,-0.002122,-0.000296,  33.066
    48.4,-0.000210,-0.000134,-0.001766,-0.000322,  33.059
    48.6,-0.000247,-0.000177,-0.001231,-0.000309,  33.063
    48.8,-0.000305,-0.000232,-0.000523,-0.000296,  33.070
    49.0,-0.000389,-0.000281,-0.000126,-0.000283,  33.081
    49.2,-0.000448,-0.000336,0.000201,-0.000270,  33.097
    49.4,-0.000515,-0.000400,0.000465,-0.000283,  33.104
    49.6,-0.000584,-0.000463,0.000741,-0.000296,  33.123
    49.8,-0.000579,-0.000470,0.000978,-0.000335,  33.138
    50.0,-0.000537,-0.000453,0.001171,-0.000400,  33.147
    50.2,-0.000464,-0.000412,0.001242,-0.000504,  33.153
    50.4,-0.000420,-0.000381,0.001209,-0.000517,  33.163
    50.6,-0.000372,-0.000338,0.001081,-0.000517,  33.166
    50.8,-0.000318,-0.000288,0.000958,-0.000504,  33.173
    51.0,-0.000288,-0.000254,0.000790,-0.000452,  33.174
    51.2,-0.000258,-0.000220,0.000558,-0.000400,  33.175
    51.4,-0.000231,-0.000194,0.000435,-0.000335,  33.172
    51.6,-0.000247,-0.000194,0.000338,-0.000283,  33.157
    51.8,-0.000274,-0.000206,0.000246,-0.000230,  33.142
    52.0,-0.000318,-0.000236,0.000098,-0.000204,  33.122
    52.2,-0.000329,-0.000243,-0.000062,-0.000178,  33.095
    52.4,-0.000329,-0.000238,-0.000234,-0.000178,  33.079
    52.6,-0.000330,-0.000234,-0.000279,-0.000191,  33.074
    52.8,-0.000307,-0.000222,-0.000260,-0.000204,  33.067
    53.0,-0.000291,-0.000198,-0.000184,-0.000243,  33.067
    53.2,-0.000263,-0.000169,-0.000068,-0.000296,  33.068
    53.4,-0.000226,-0.000167,0.000105,-0.000296,  33.067
    53.6,-0.000233,-0.000165,0.000310,-0.000309,  33.064
    53.8,-0.000249,-0.000172,0.000478,-0.000309,  33.067
    54.0,-0.000276,-0.000226,0.000665,-0.000296,  33.068
    54.2,-0.000350,-0.000290,0.000852,-0.000283,  33.082
    54.4,-0.000439,-0.000383,0.000898,-0.000270,  33.095
    54.6,-0.000554,-0.000420,0.000868,-0.000283,  33.106
    54.8,-0.000571,-0.000427,0.000742,-0.000335,  33.124
    55.0,-0.000548,-0.000423,0.000800,-0.000400,  33.136
    55.2,-0.000490,-0.000409,0.000908,-0.000426,  33.149
    55.4,-0.000450,-0.000368,0.001049,-0.000491,  33.153
    55.6,-0.000406,-0.000317,0.000780,-0.000543,  33.163
    55.8,-0.000349,-0.000286,0.000331,-0.000543,  33.168
    56.0,-0.000314,-0.000254,-0.000308,-0.000491,  33.172
    56.2,-0.000277,-0.000225,-0.000495,-0.000487,  33.174
    56.4,-0.000247,-0.000211,-0.000548,-0.000374,  33.176
    56.6,-0.000238,-0.000196,-0.000447,-0.000357,  33.172
    56.8,-0.000247,-0.000191,-0.000461,-0.000317,  33.155
    57.0,-0.000266,-0.000204,-0.000456,-0.000243,  33.146
    57.2,-0.000277,-0.000228,-0.000450,-0.000204,  33.131
    57.4,-0.000297,-0.000256,-0.000412,-0.000165,  33.109
    57.6,-0.000319,-0.000260,-0.000445,-0.000152,  33.083
    57.8,-0.000316,-0.000265,-0.000496,-0.000165,  33.068
    58.0,-0.000308,-0.000252,-0.000572,-0.000204,  33.065
    58.2,-0.000291,-0.000235,-0.000515,-0.000270,  33.062
    58.4,-0.000277,-0.000218,-0.000412,-0.000283,  33.050
    58.6,-0.000263,-0.000196,-0.000278,-0.000296,  33.052
    58.8,-0.000243,-0.000173,-0.000079,-0.000322,  33.048
    59.0,-0.000286,-0.000199,0.000184,-0.000322,  33.047
    59.2,-0.000350,-0.000237,0.000485,-0.000309,  33.048
    59.4,-0.000438,-0.000290,0.000684,-0.000322,  33.060
    59.6,-0.000495,-0.000354,0.000871,-0.000322,  33.073
    59.8,-0.000540,-0.000421,0.001033,-0.000322,  33.103
    60.0,-0.000572,-0.000488,0.001201,-0.000335,  33.113
    60.2,-0.000568,-0.000495,0.001323,-0.000387,  33.122
    60.4,-0.000529,-0.000476,0.001458,-0.000452,  33.133
    60.6,-0.000455,-0.000421,0.001279,-0.000556,  33.152
    60.8,-0.000420,-0.000383,0.000907,-0.000569,  33.158
    61.0,-0.000372,-0.000345,0.000376,-0.000543,  33.166
    61.2,-0.000318,-0.000303,0.000241,-0.000504,  33.171
    61.4,-0.000285,-0.000271,0.000188,-0.000452,  33.176
    61.6,-0.000262,-0.000239,0.000250,-0.000400,  33.175
    61.8,-0.000249,-0.000206,0.000134,-0.000348,  33.165
    62.0,-0.000234,-0.000213,-0.000033,-0.000296,  33.157
    62.2,-0.000255,-0.000232,-0.000251,-0.000243,  33.145
    62.4,-0.000286,-0.000261,-0.000329,-0.000230,  33.123
    62.6,-0.000336,-0.000274,-0.000349,-0.000217,  33.091
    62.8,-0.000344,-0.000276,-0.000350,-0.000204,  33.070
    63.0,-0.000342,-0.000271,-0.000389,-0.000182,  33.067
    63.2,-0.000330,-0.000263,-0.000433,-0.000243,  33.060
    63.4,-0.000314,-0.000239,-0.000497,-0.000270,  33.045
    63.6,-0.000291,-0.000213,-0.000413,-0.000322,  33.047
    63.8,-0.000266,-0.000208,-0.000272,-0.000335,  33.045
    64.0,-0.000266,-0.000199,-0.000099,-0.000322,  33.045
    64.2,-0.000283,-0.000197,0.000119,-0.000322,  33.045
    64.4,-0.000308,-0.000246,0.000376,-0.000322,  33.046
    64.6,-0.000375,-0.000319,0.000672,-0.000309,  33.058
    64.8,-0.000467,-0.000416,0.000922,-0.000330,  33.074
    65.0,-0.000590,-0.000453,0.001154,-0.000283,  33.095
    65.2,-0.000607,-0.000458,0.001386,-0.000343,  33.110
    65.4,-0.000587,-0.000452,0.001463,-0.000383,  33.120
    65.6,-0.000531,-0.000438,0.001457,-0.000413,  33.132
    65.8,-0.000488,-0.000392,0.001381,-0.000452,  33.153
    66.0,-0.000433,-0.000338,0.001028,-0.000504,  33.159
    66.2,-0.000368,-0.000307,0.000523,-0.000569,  33.166
    66.4,-0.000325,-0.000266,-0.000168,-0.000543,  33.174
    66.6,-0.000282,-0.000233,-0.001035,-0.000491,  33.174
    66.8,-0.000238,-0.000209,-0.001144,-0.000413,  33.170
    67.0,-0.000231,-0.000194,-0.001051,-0.000361,  33.169
    67.2,-0.000229,-0.000184,-0.000767,-0.000309,  33.162
    67.4,-0.000248,-0.000182,-0.000736,-0.000270,  33.149
    67.6,-0.000267,-0.000197,-0.000782,-0.000217,  33.126
    67.8,-0.000291,-0.000218,-0.000846,-0.000191,  33.088
    68.0,-0.000313,-0.000248,-0.000809,-0.000178,  33.076
    68.2,-0.000314,-0.000250,-0.000765,-0.000178,  33.066
    68.4,-0.000300,-0.000239,-0.000683,-0.000204,  33.053
    68.6,-0.000281,-0.000219,-0.000587,-0.000270,  33.051
    68.8,-0.000273,-0.000204,-0.000491,-0.000283,  33.053
    69.0,-0.000257,-0.000189,-0.000356,-0.000296,  33.056
    69.2,-0.000243,-0.000170,-0.000202,-0.000322,  33.056
    69.4,-0.000283,-0.000185,-0.000054,-0.000309,  33.053
    69.6,-0.000342,-0.000222,0.000120,-0.000296,  33.059
    69.8,-0.000421,-0.000268,0.000339,-0.000296,  33.071
    70.0,-0.000476,-0.000321,0.000558,-0.000283,  33.084
    70.2,-0.000517,-0.000387,0.000789,-0.000296,  33.102
    70.4,-0.000557,-0.000454,0.000733,-0.000309,  33.113
    70.6,-0.000559,-0.000463,0.000517,-0.000348,  33.126
    70.8,-0.000540,-0.000443,0.000167,-0.000426,  33.136
    71.0,-0.000507,-0.000393,0.000128,-0.000530,  33.149
    71.2,-0.000446,-0.000368,0.000198,-0.000530,  33.161
    71.4,-0.000416,-0.000326,0.000344,-0.000504,  33.166
    71.6,-0.000380,-0.000290,0.000292,-0.000465,  33.167
    71.8,-0.000337,-0.000267,0.000201,-0.000426,  33.171
    72.0,-0.000312,-0.000237,0.000032,-0.000374,  33.174
    72.2,-0.000290,-0.000216,-0.000090,-0.000335,  33.172
    72.4,-0.000281,-0.000227,-0.000213,-0.000296,  33.162
    72.6,-0.000298,-0.000246,-0.000360,-0.000256,  33.151
    72.8,-0.000329,-0.000280,-0.000451,-0.000230,  33.129
    73.0,-0.000382,-0.000296,-0.000509,-0.000217,  33.100
    73.2,-0.000390,-0.000299,-0.000560,-0.000217,  33.085
    73.4,-0.000385,-0.000293,-0.000535,-0.000243,  33.070
    73.6,-0.000368,-0.000282,-0.000478,-0.000270,  33.072
    73.8,-0.000351,-0.000259,-0.000382,-0.000283,  33.067
    74.0,-0.000329,-0.000228,-0.000280,-0.000357,  33.061
    74.2,-0.000298,-0.000214,-0.000170,-0.000348,  33.060
    74.4,-0.000295,-0.000214,-0.000060,-0.000383,  33.060
    74.6,-0.000306,-0.000213,0.000094,-0.000396,  33.060
    74.8,-0.000331,-0.000257,0.000293,-0.000361,  33.059
    75.0,-0.000393,-0.000331,0.000479,-0.000361,  33.065
    75.2,-0.000482,-0.000421,0.000717,-0.000335,  33.083
    75.4,-0.000602,-0.000449,0.000852,-0.000322,  33.102
    75.6,-0.000610,-0.000464,0.000975,-0.000348,  33.115
    75.8,-0.000584,-0.000454,0.001080,-0.000374,  33.129
    76.0,-0.000526,-0.000439,0.001144,-0.000439,  33.136
    76.2,-0.000474,-0.000413,0.001183,-0.000491,  33.154
    76.4,-0.000421,-0.000377,0.001209,-0.000543,  33.160
    76.6,-0.000369,-0.000331,0.001144,-0.000608,  33.167
    76.8,-0.000325,-0.000298,0.001033,-0.000582,  33.172
    77.0,-0.000286,-0.000257,0.000865,-0.000530,  33.174
    77.2,-0.000255,-0.000220,0.000653,-0.000426,  33.177
    77.4,-0.000241,-0.000197,0.000383,-0.000361,  33.173
    77.6,-0.000238,-0.000180,0.000050,-0.000309,  33.170
    77.8,-0.000252,-0.000174,-0.000066,-0.000270,  33.158
    78.0,-0.000266,-0.000188,-0.000112,-0.000217,  33.144
    78.2,-0.000288,-0.000208,-0.000081,-0.000191,  33.126
    78.4,-0.000319,-0.000242,-0.000184,-0.000165,  33.097
    78.6,-0.000319,-0.000248,-0.000318,-0.000165,  33.086
    78.8,-0.000308,-0.000241,-0.000490,-0.000204,  33.080
    79.0,-0.000282,-0.000218,-0.000496,-0.000256,  33.074
    79.2,-0.000274,-0.000208,-0.000457,-0.000304,  33.077
    79.4,-0.000263,-0.000192,-0.000335,-0.000330,  33.076
    79.6,-0.000245,-0.000173,-0.000169,-0.000343,  33.074
    79.8,-0.000265,-0.000189,0.000062,-0.000365,  33.072
    80.0,-0.000302,-0.000219,0.000358,-0.000365,  33.075
    80.2,-0.000353,-0.000271,0.000583,-0.000330,  33.081
    80.4,-0.000420,-0.000322,0.000795,-0.000317,  33.087
    80.6,-0.000462,-0.000383,0.000988,-0.000317,  33.109
    80.8,-0.000504,-0.000462,0.001156,-0.000330,  33.125
    81.0,-0.000551,-0.000473,0.001304,-0.000370,  33.136
    81.2,-0.000537,-0.000448,0.001401,-0.000448,  33.155
    81.4,-0.000498,-0.000397,0.001427,-0.000565,  33.156
    81.6,-0.000434,-0.000367,0.001375,-0.000565,  33.167
    81.8,-0.000395,-0.000337,0.001272,-0.000552,  33.170
    82.0,-0.000353,-0.000296,0.001111,-0.000513,  33.176
    82.2,-0.000311,-0.000262,0.000854,-0.000461,  33.179
    82.4,-0.000280,-0.000232,0.000525,-0.000409,  33.181
    82.6,-0.000255,-0.000208,0.000370,-0.000343,  33.177
    82.8,-0.000233,-0.000212,0.000267,-0.000304,  33.169
    83.0,-0.000250,-0.000230,0.000183,-0.000265,  33.161
    83.2,-0.000278,-0.000261,0.000098,-0.000239,  33.148
    83.4,-0.000331,-0.000268,0.000033,-0.000239,  33.125
    83.6,-0.000340,-0.000266,-0.000005,-0.000261,  33.098
    83.8,-0.000337,-0.000254,-0.000069,-0.000213,  33.086
    84.0,-0.000316,-0.000241,-0.000140,-0.000178,  33.084
    84.2,-0.000296,-0.000225,-0.000197,-0.000156,  33.082
    84.4,-0.000282,-0.000210,-0.000260,-0.000196,  33.078
    84.6,-0.000266,-0.000203,-0.000164,-0.000296,  33.080
    84.8,-0.000266,-0.000203,0.000009,-0.000296,  33.082
    85.0,-0.000280,-0.000203,0.000240,-0.000309,  33.077
    85.2,-0.000302,-0.000234,0.000389,-0.000309,  33.076
    85.4,-0.000364,-0.000279,0.000537,-0.000296,  33.084
    85.6,-0.000453,-0.000338,0.000641,-0.000296,  33.097
    85.8,-0.000571,-0.000413,0.000809,-0.000296,  33.114
    86.0,-0.000593,-0.000441,0.001022,-0.000309,  33.123
    86.2,-0.000582,-0.000456,0.001228,-0.000348,  33.133
    86.4,-0.000537,-0.000462,0.001362,-0.000413,  33.144
    86.6,-0.000501,-0.000446,0.001484,-0.000465,  33.158
    86.8,-0.000453,-0.000407,0.001574,-0.000530,  33.168
    87.0,-0.000392,-0.000355,0.001483,-0.000608,  33.171
    87.2,-0.000347,-0.000323,0.001296,-0.000582,  33.179
    87.4,-0.000308,-0.000283,0.001032,-0.000530,  33.179
    87.6,-0.000274,-0.000246,0.000794,-0.000426,  33.182
    87.8,-0.000258,-0.000226,0.000524,-0.000361,  33.178
    88.0,-0.000255,-0.000212,0.000229,-0.000322,  33.179
    88.2,-0.000259,-0.000201,0.000068,-0.000283,  33.168
    88.4,-0.000268,-0.000212,-0.000054,-0.000230,  33.155
    88.6,-0.000279,-0.000234,-0.000144,-0.000204,  33.139
    88.8,-0.000311,-0.000270,-0.000700,-0.000178,  33.118
    89.0,-0.000329,-0.000272,-0.001495,-0.000178,  33.104
    89.2,-0.000333,-0.000265,-0.002497,-0.000217,  33.100
    89.4,-0.000322,-0.000243,-0.002516,-0.000283,  33.089
    89.6,-0.000305,-0.000231,-0.002161,-0.000296,  33.093
    89.8,-0.000291,-0.000212,-0.001424,-0.000322,  33.091
    90.0,-0.000277,-0.000193,-0.001042,-0.000335,  33.090
    90.2,-0.000266,-0.000208,-0.000665,-0.000322,  33.088
    90.4,-0.000297,-0.000240,-0.000282,-0.000322,  33.086
    90.6,-0.000355,-0.000286,-0.000287,-0.000309,  33.086
    90.8,-0.000434,-0.000336,-0.000470,-0.000309,  33.101
    91.0,-0.000484,-0.000402,-0.000862,-0.000309,  33.111
    91.2,-0.000529,-0.000480,-0.000651,-0.000322,  33.126
    91.4,-0.000569,-0.000496,-0.000229,-0.000361,  33.136
    91.6,-0.000565,-0.000477,0.000365,-0.000439,  33.154
    91.8,-0.000523,-0.000430,0.000550,-0.000543,  33.162
    92.0,-0.000449,-0.000396,0.000633,-0.000569,  33.167
    92.2,-0.000414,-0.000360,0.000594,-0.000556,  33.175
    92.4,-0.000367,-0.000315,0.000567,-0.000578,  33.178
    92.6,-0.000318,-0.000284,0.000495,-0.000491,  33.190
    92.8,-0.000291,-0.000249,0.000390,-0.000474,  33.193
    93.0,-0.000254,-0.000217,0.001078,-0.000422,  33.194
    93.2,-0.000218,-0.000215,0.002155,-0.000335,  33.191
    93.4,-0.000230,-0.000221,0.003602,-0.000283,  33.186
    93.6,-0.000261,-0.000244,0.005427,-0.000243,  33.171
    93.8,-0.000309,-0.000256,0.005133,-0.000217,  33.154
    94.0,-0.000321,-0.000257,0.004206,-0.000191,  33.140
    94.2,-0.000314,-0.000259,0.002669,-0.000178,  33.120
    94.4,-0.000303,-0.000248,0.002048,-0.000165,  33.104
    94.6,-0.000290,-0.000234,0.001590,-0.000178,  33.100
    94.8,-0.000258,-0.000212,0.001278,-0.000230,  33.094
    95.0,-0.000225,-0.000183,0.001063,-0.000283,  33.091
    95.2,-0.000220,-0.000169,0.000964,-0.000283,  33.092
    95.4,-0.000216,-0.000153,0.000984,-0.000309,  33.085
    95.6,-0.000230,-0.000147,0.001043,-0.000309,  33.086
    95.8,-0.000287,-0.000182,0.001167,-0.000296,  33.084
    96.0,-0.000368,-0.000246,0.001356,-0.000283,  33.095
    96.2,-0.000477,-0.000330,0.001501,-0.000256,  33.107
    96.4,-0.000520,-0.000378,0.001654,-0.000270,  33.118
    96.6,-0.000537,-0.000420,0.001800,-0.000296,  33.130
    96.8,-0.000528,-0.000456,0.001838,-0.000335,  33.142
    97.0,-0.000515,-0.000454,0.001824,-0.000387,  33.154
    97.2,-0.000473,-0.000424,0.001754,-0.000465,  33.160
    97.4,-0.000405,-0.000367,0.001682,-0.000569,  33.169
    97.6,-0.000371,-0.000335,0.001539,-0.000569,  33.177
    97.8,-0.000340,-0.000299,0.001364,-0.000530,  33.177
    98.0,-0.000316,-0.000263,0.000761,-0.000452,  33.180
    98.2,-0.000285,-0.000245,-0.000097,-0.000400,  33.182
    98.4,-0.000274,-0.000221,-0.001200,-0.000348,  33.178
    98.6,-0.000266,-0.000203,-0.001431,-0.000296,  33.168
    98.8,-0.000263,-0.000219,-0.001349,-0.000243,  33.157
    99.0,-0.000274,-0.000240,-0.000957,-0.000217,  33.142
    99.2,-0.000302,-0.000271,-0.000856,-0.000191,  33.118
    99.4,-0.000344,-0.000278,-0.000768,-0.000191,  33.093
    99.6,-0.000344,-0.000265,-0.000648,-0.000217,  33.081
    99.8,-0.000336,-0.000247,-0.000560,-0.000270,  33.074
   100.0,-0.000319,-0.000233,-0.000502,-0.000283,  33.059
   100.2,-0.000302,-0.000210,-0.000437,-0.000309,  33.059
   100.4,-0.000283,-0.000187,-0.000277,-0.000348,  33.054
   100.6,-0.000261,-0.000203,-0.000104,-0.000348,  33.054
   100.8,-0.000288,-0.000223,0.000134,-0.000335,  33.049
   101.0,-0.000339,-0.000266,0.000397,-0.000335,  33.051
   101.2,-0.000411,-0.000330,0.000686,-0.000322,  33.062
   101.4,-0.000471,-0.000397,0.001013,-0.000322,  33.075
   101.6,-0.000524,-0.000486,0.001181,-0.000357,  33.091
   101.8,-0.000583,-0.000499,0.001278,-0.000335,  33.116
   102.0,-0.000578,-0.000471,0.001318,-0.000422,  33.126
   102.2,-0.000539,-0.000418,0.001338,-0.000487,  33.134
   102.4,-0.000466,-0.000389,0.001312,-0.000530,  33.144
   102.6,-0.000414,-0.000344,0.001260,-0.000543,  33.160
   102.8,-0.000369,-0.000295,0.001150,-0.000530,  33.166
   103.0,-0.000322,-0.000261,0.001027,-0.000491,  33.169
   103.2,-0.000286,-0.000230,0.000885,-0.000452,  33.172
   103.4,-0.000252,-0.000201,0.000691,-0.000387,  33.173
   103.6,-0.000231,-0.000187,0.000485,-0.000322,  33.169
   103.8,-0.000237,-0.000196,0.000267,-0.000256,  33.160
   104.0,-0.000264,-0.000203,0.000005,-0.000217,  33.153
   104.2,-0.000308,-0.000223,-0.000137,-0.000191,  33.135
   104.4,-0.000312,-0.000228,-0.000220,-0.000165,  33.107
   104.6,-0.000318,-0.000244,-0.000278,-0.000152,  33.084
   104.8,-0.000322,-0.000251,-0.000291,-0.000152,  33.067
   105.0,-0.000318,-0.000247,-0.000260,-0.000165,  33.056
   105.2,-0.000301,-0.000230,-0.000209,-0.000217,  33.048
   105.4,-0.000276,-0.000210,-0.000125,-0.000283,  33.045
   105.6,-0.000277,-0.000203,0.000009,-0.000283,  33.042
   105.8,-0.000282,-0.000191,0.000170,-0.000309,  33.042
   106.0,-0.000290,-0.000187,0.000338,-0.000309,  33.042
   106.2,-0.000343,-0.000230,0.000518,-0.000296,  33.039
   106.4,-0.000430,-0.000287,0.000718,-0.000296,  33.047
   106.6,-0.000537,-0.000369,0.000943,-0.000296,  33.059
   106.8,-0.000563,-0.000416,0.001187,-0.000309,  33.081
   107.0,-0.000574,-0.000448,0.001451,-0.000335,  33.096
   107.2,-0.000557,-0.000469,0.001567,-0.000374,  33.112
   107.4,-0.000540,-0.000463,0.001612,-0.000426,  33.128
   107.6,-0.000509,-0.000429,0.001600,-0.000504,  33.133
   107.8,-0.000470,-0.000378,0.001574,-0.000595,  33.144
   108.0,-0.000414,-0.000349,0.001483,-0.000582,  33.153
   108.2,-0.000372,-0.000308,0.001360,-0.000530,  33.163
   108.4,-0.000333,-0.000267,0.001173,-0.000465,  33.165
   108.6,-0.000294,-0.000244,0.000941,-0.000413,  33.168
   108.8,-0.000269,-0.000221,0.000658,-0.000348,  33.161
   109.0,-0.000255,-0.000197,0.000490,-0.000296,  33.157
   109.2,-0.000255,-0.000208,0.000368,-0.000243,  33.142
   109.4,-0.000269,-0.000230,0.000284,-0.000204,  33.124
   109.6,-0.000294,-0.000268,0.000181,-0.000178,  33.088
   109.8,-0.000336,-0.000275,0.000065,-0.000165,  33.059
   110.0,-0.000339,-0.000263,-0.000057,-0.000191,  33.039
   110.2,-0.000325,-0.000246,-0.000088,-0.000243,  33.035
   110.4,-0.000300,-0.000239,-0.000114,-0.000256,  33.027
   110.6,-0.000283,-0.000218,-0.000106,-0.000283,  33.013
   110.8,-0.000266,-0.000198,-0.000010,-0.000330,  33.015
   111.0,-0.000252,-0.000206,0.000132,-0.000322,  33.014
   111.2,-0.000277,-0.000225,0.000325,-0.000343,  33.010
   111.4,-0.000328,-0.000252,0.000466,-0.000357,  33.008
   111.6,-0.000397,-0.000312,0.000634,-0.000309,  33.018
   111.8,-0.000453,-0.000388,0.000782,-0.000296,  33.034
   112.0,-0.000515,-0.000490,0.000937,-0.000309,  33.056
   112.2,-0.000579,-0.000508,0.001072,-0.000309,  33.079
   112.4,-0.000573,-0.000479,0.001195,-0.000348,  33.098
   112.6,-0.000534,-0.000429,0.001324,-0.000413,  33.113
   112.8,-0.000462,-0.000401,0.001356,-0.000504,  33.123
   113.0,-0.000420,-0.000374,0.001350,-0.000517,  33.129
   113.2,-0.000375,-0.000337,0.001278,-0.000517,  33.139
   113.4,-0.000328,-0.000305,0.001156,-0.000491,  33.147
   113.6,-0.000291,-0.000276,0.000956,-0.000452,  33.152
   113.8,-0.000261,-0.000240,0.000718,-0.000387,  33.157
   114.0,-0.000229,-0.000207,0.000499,-0.000322,  33.157
   114.2,-0.000244,-0.000203,0.000268,-0.000270,  33.142
   114.4,-0.000272,-0.000208,-0.000001,-0.000217,  33.135
   114.6,-0.000310,-0.000224,-0.000123,-0.000204,  33.111
   114.8,-0.000325,-0.000235,-0.000175,-0.000178,  33.074
   115.0,-0.000333,-0.000244,-0.000170,-0.000152,  33.049
   115.2,-0.000326,-0.000254,-0.000221,-0.000152,  33.032
   115.4,-0.000322,-0.000251,-0.000272,-0.000165,  33.026
   115.6,-0.000302,-0.000234,-0.000330,-0.000217,  33.018
   115.8,-0.000271,-0.000210,-0.000399,-0.000283,  33.014
   116.0,-0.000265,-0.000198,-0.000501,-0.000283,  33.014
   116.2,-0.000262,-0.000187,-0.000621,-0.000309,  33.015
   116.4,-0.000274,-0.000176,-0.000467,-0.000309,  33.012
   116.6,-0.000276,-0.000212,-0.000204,-0.000296,  33.018
   116.8,-0.000342,-0.000273,0.000181,-0.000296,  33.026
   117.0,-0.000425,-0.000365,0.000457,-0.000296,  33.033
   117.2,-0.000529,-0.000405,0.000733,-0.000309,  33.061
   117.4,-0.000559,-0.000439,0.001016,-0.000335,  33.075
   117.6,-0.000565,-0.000455,0.001183,-0.000374,  33.093
   117.8,-0.000543,-0.000440,0.001298,-0.000439,  33.111
   118.0,-0.000515,-0.000410,0.001350,-0.000517,  33.119
   118.2,-0.000473,-0.000366,0.001311,-0.000608,  33.131
   118.4,-0.000411,-0.000337,0.001214,-0.000595,  33.139
   118.6,-0.000375,-0.000307,0.001046,-0.000543,  33.145
   118.8,-0.000344,-0.000275,0.000834,-0.000465,  33.154
   119.0,-0.000316,-0.000261,0.000551,-0.000413,  33.154
   119.2,-0.000300,-0.000250,0.000218,-0.000348,  33.153
   119.4,-0.000300,-0.000237,-0.000127,-0.000322,  33.148
   119.6,-0.000308,-0.000252,-0.000537,-0.000283,  33.134
   119.8,-0.000322,-0.000277,-0.000990,-0.000243,  33.107
   120.0,-0.000344,-0.000309,-0.001118,-0.000278,  33.084
   120.2,-0.000381,-0.000316,-0.001106,-0.000265,  33.063
   120.4,-0.000390,-0.000304,-0.000947,-0.000300,  33.046
   120.6,-0.000376,-0.000283,-0.000864,-0.000291,  33.037
   120.8,-0.000357,-0.000268,-0.000757,-0.000330,  33.029
   121.0,-0.000347,-0.000243,-0.000604,-0.000343,  33.023
   121.2,-0.000324,-0.000213,-0.000412,-0.000370,  33.023
   121.4,-0.000295,-0.000222,-0.000233,-0.000396,  33.025
   121.6,-0.000315,-0.000237,-0.000047,-0.000396,  33.024
   121.8,-0.000357,-0.000263,0.000172,-0.000383,  33.029
   122.0,-0.000421,-0.000304,0.000199,-0.000383,  33.034
   122.2,-0.000477,-0.000357,0.000156,-0.000383,  33.047
   122.4,-0.000549,-0.000426,0.000011,-0.000370,  33.065
   122.6,-0.000630,-0.000505,0.000184,-0.000370,  33.082
   122.8,-0.000627,-0.000511,0.000466,-0.000409,  33.101
   123.0,-0.000591,-0.000498,0.000876,-0.000474,  33.115
   123.2,-0.000519,-0.000462,0.000998,-0.000552,  33.123
   123.4,-0.000467,-0.000425,0.001030,-0.000530,  33.130
   123.6,-0.000423,-0.000381,0.000984,-0.000543,  33.140
   123.8,-0.000372,-0.000333,0.000881,-0.000530,  33.145
   124.0,-0.000324,-0.000299,0.000687,-0.000456,  33.151
   124.2,-0.000290,-0.000262,0.000436,-0.000404,  33.161
   124.4,-0.000266,-0.000230,0.000281,-0.000374,  33.160
   124.6,-0.000269,-0.000224,0.000139,-0.000322,  33.156
   124.8,-0.000294,-0.000225,0.000010,-0.000283,  33.147
   125.0,-0.000336,-0.000239,-0.000119,-0.000243,  33.128
   125.2,-0.000347,-0.000253,-0.000216,-0.000204,  33.102
   125.4,-0.000349,-0.000261,-0.000306,-0.000178,  33.080
   125.6,-0.000358,-0.000276,-0.000389,-0.000178,  33.055
   125.8,-0.000352,-0.000273,-0.000491,-0.000191,  33.045
   126.0,-0.000347,-0.000256,-0.000600,-0.000243,  33.041
   126.2,-0.000328,-0.000230,-0.000517,-0.000309,  33.041
   126.4,-0.000302,-0.000222,-0.000350,-0.000322,  33.039
   126.6,-0.000294,-0.000210,-0.000100,-0.000348,  33.040
   126.8,-0.000294,-0.000201,0.000047,-0.000326,  33.036
   127.0,-0.000297,-0.000240,0.000202,-0.000361,  33.035
   127.2,-0.000347,-0.000297,0.000332,-0.000348,  33.033
   127.4,-0.000428,-0.000376,0.000519,-0.000300,  33.042
   127.6,-0.000534,-0.000420,0.000712,-0.000348,  33.064
   127.8,-0.000562,-0.000453,0.000925,-0.000361,  33.088
   128.0,-0.000565,-0.000475,0.001041,-0.000387,  33.106
   128.2,-0.000545,-0.000463,0.001125,-0.000439,  33.121
   128.4,-0.000515,-0.000424,0.001144,-0.000500,  33.129
   128.6,-0.000467,-0.000369,0.001099,-0.000578,  33.133
   128.8,-0.000403,-0.000336,0.000996,-0.000621,  33.141
   129.0,-0.000361,-0.000298,0.000815,-0.000617,  33.148
   129.2,-0.000322,-0.000262,0.000687,-0.000578,  33.154
   129.4,-0.000286,-0.000237,0.000532,-0.000465,  33.163
   129.6,-0.000263,-0.000207,0.000397,-0.000400,  33.162
   129.8,-0.000252,-0.000185,0.000210,-0.000335,  33.157
   130.0,-0.000247,-0.000198,0.000024,-0.000296,  33.149
   130.2,-0.000255,-0.000217,-0.000188,-0.000243,  33.128
   130.4,-0.000277,-0.000254,-0.000425,-0.000217,  33.110
   130.6,-0.000314,-0.000261,-0.000553,-0.000191,  33.080
   130.8,-0.000314,-0.000266,-0.000637,-0.000191,  33.054
   131.0,-0.000305,-0.000253,-0.000681,-0.000217,  33.047
   131.2,-0.000288,-0.000239,-0.000649,-0.000256,  33.043
   131.4,-0.000272,-0.000226,-0.000573,-0.000283,  33.041
   131.6,-0.000261,-0.000211,-0.000458,-0.000296,  33.040
   131.8,-0.000247,-0.000187,-0.000279,-0.000322,  33.038
   132.0,-0.000266,-0.000198,-0.000054,-0.000322,  33.034
   132.2,-0.000311,-0.000213,0.000216,-0.000309,  33.031
   132.4,-0.000372,-0.000248,0.000421,-0.000322,  33.029
   132.6,-0.000436,-0.000309,0.000583,-0.000309,  33.038
   132.8,-0.000512,-0.000389,0.000744,-0.000309,  33.061
   133.0,-0.000601,-0.000487,0.000963,-0.000309,  33.074
   133.2,-0.000601,-0.000513,0.001213,-0.000348,  33.089
   133.4,-0.000565,-0.000501,0.001464,-0.000426,  33.109
   133.6,-0.000492,-0.000451,0.001451,-0.000517,  33.122
   133.8,-0.000456,-0.000424,0.001291,-0.000530,  33.134
   134.0,-0.000420,-0.000385,0.001016,-0.000543,  33.141
   134.2,-0.000381,-0.000330,0.000862,-0.000530,  33.145
   134.4,-0.000347,-0.000294,0.000700,-0.000478,  33.149
   134.6,-0.000308,-0.000258,0.000525,-0.000426,  33.157
   134.8,-0.000269,-0.000224,0.000339,-0.000361,  33.157
   135.0,-0.000233,-0.000214,0.000165,-0.000309,  33.154
   135.2,-0.000235,-0.000212,-0.000047,-0.000256,  33.150
   135.4,-0.000255,-0.000217,-0.000150,-0.000230,  33.125
   135.6,-0.000300,-0.000227,-0.000189,-0.000204,  33.107
   135.8,-0.000318,-0.000239,-0.000203,-0.000165,  33.074
   136.0,-0.000323,-0.000254,-0.000203,-0.000152,  33.051
   136.2,-0.000326,-0.000250,-0.000178,-0.000165,  33.041
   136.4,-0.000321,-0.000237,-0.000133,-0.000217,  33.033
   136.6,-0.000305,-0.000218,-0.000081,-0.000296,  33.018
   136.8,-0.000273,-0.000210,-0.000023,-0.000309,  33.016
   137.0,-0.000262,-0.000195,0.000043,-0.000322,  33.015
   137.2,-0.000259,-0.000179,-0.000058,-0.000335,  33.017
   137.4,-0.000262,-0.000212,-0.000216,-0.000335,  33.011
   137.6,-0.000312,-0.000274,-0.000437,-0.000322,  33.014
   137.8,-0.000393,-0.000358,-0.000384,-0.000357,  33.021
   138.0,-0.000505,-0.000398,-0.000230,-0.000309,  33.039
   138.2,-0.000538,-0.000435,0.000059,-0.000357,  33.066
   138.4,-0.000547,-0.000461,0.000238,-0.000383,  33.081
   138.6,-0.000533,-0.000450,0.000417,-0.000387,  33.094
   138.8,-0.000502,-0.000421,0.000616,-0.000439,  33.115
   139.0,-0.000454,-0.000362,0.000801,-0.000517,  33.125
   139.2,-0.000390,-0.000319,0.000846,-0.000621,  33.134
   139.4,-0.000343,-0.000277,0.000832,-0.000595,  33.144
   139.6,-0.000292,-0.000239,0.000766,-0.000543,  33.149
   139.8,-0.000242,-0.000210,0.000662,-0.000465,  33.155
   140.0,-0.000211,-0.000186,0.000520,-0.000400,  33.160
   140.2,-0.000189,-0.000169,0.000327,-0.000335,  33.161
   140.4,-0.000172,-0.000157,0.000204,-0.000296,  33.151
   140.6,-0.000178,-0.000167,0.000108,-0.000243,  33.141
   140.8,-0.000209,-0.000188,0.000012,-0.000217,  33.120
   141.0,-0.000253,-0.000226,0.000019,-0.000191,  33.097
   141.2,-0.000250,-0.000233,0.000076,-0.000178,  33.069
   141.4,-0.000234,-0.000225,0.000178,-0.000191,  33.038
   141.6,-0.000206,-0.000205,0.000236,-0.000230,  33.021
   141.8,-0.000178,-0.000180,0.000319,-0.000256,  33.011
   142.0,-0.000144,-0.000148,0.000397,-0.000283,  33.012
   142.2,-0.000111,-0.000108,0.000558,-0.000348,  33.010
   142.4,-0.000116,-0.000104,0.000770,-0.000361,  33.013
   142.6,-0.000139,-0.000112,0.001047,-0.000335,  33.013
   142.8,-0.000186,-0.000127,0.001292,-0.000322,  33.017
   143.0,-0.000242,-0.000185,0.001518,-0.000309,  33.021
   143.2,-0.000306,-0.000266,0.001744,-0.000283,  33.038
   143.4,-0.000400,-0.000364,0.001976,-0.000270,  33.054
   143.6,-0.000491,-0.000402,0.002214,-0.000283,  33.081
   143.8,-0.000503,-0.000412,0.002440,-0.000348,  33.096
   144.0,-0.000483,-0.000400,0.002537,-0.000426,  33.114
   144.2,-0.000429,-0.000382,0.002563,-0.000478,  33.124
   144.4,-0.000385,-0.000345,0.002512,-0.000543,  33.130
   144.6,-0.000329,-0.000283,0.002415,-0.000608,  33.142
   144.8,-0.000262,-0.000244,0.002259,-0.000582,  33.147
   145.0,-0.000203,-0.000196,0.002013,-0.000530,  33.150
   145.2,-0.000142,-0.000149,0.001839,-0.000426,  33.151
   145.4,-0.000086,-0.000129,0.001651,-0.000361,  33.151
   145.6,-0.000069,-0.000112,0.001458,-0.000322,  33.136
   145.8,-0.000069,-0.000108,0.001393,-0.000283,  33.118
   146.0,-0.000091,-0.000111,0.001381,-0.000243,  33.108
   146.2,-0.000091,-0.000119,0.001439,-0.000217,  33.081
   146.4,-0.000091,-0.000132,0.001530,-0.000204,  33.045
   146.6,-0.000088,-0.000123,0.001672,-0.000204,  33.029
   146.8,-0.000072,-0.000110,0.001872,-0.000230,  33.010
   147.0,-0.000049,-0.000078,0.002053,-0.000304,  33.013
   147.2,-0.000021,-0.000064,0.002253,-0.000335,  33.009
   147.4,-0.000010,-0.000054,0.002479,-0.000370,  33.008
   147.6,-0.000010,-0.000049,0.002641,-0.000383,  33.008
   147.8,-0.000013,-0.000085,0.002803,-0.000361,  33.011
   148.0,-0.000066,-0.000148,0.002927,-0.000361,  33.005
   148.2,-0.000144,-0.000237,0.003050,-0.000348,  33.017
   148.4,-0.000256,-0.000277,0.003309,-0.000335,  33.027
   148.6,-0.000280,-0.000302,0.003607,-0.000348,  33.045
   148.8,-0.000286,-0.000321,0.003943,-0.000387,  33.075
   149.0,-0.000266,-0.000325,0.004112,-0.000426,  33.088
   149.2,-0.000223,-0.000309,0.004189,-0.000478,  33.102
   149.4,-0.000170,-0.000266,0.004210,-0.000556,  33.117
   149.6,-0.000101,-0.000215,0.004203,-0.000634,  33.131
   149.8,-0.000031,-0.000170,0.004144,-0.000608,  33.137
   150.0,0.000044,-0.000113,0.004014,-0.000569,  33.143
   150.2,0.000122,-0.000049,0.003852,-0.000478,  33.150
   150.4,0.000187,0.000004,0.003631,-0.000413,  33.149
   150.6,0.000248,0.000052,0.003340,-0.000361,  33.146
   150.8,0.000299,0.000102,0.003295,-0.000309,  33.134
   151.0,0.000313,0.000117,0.003314,-0.000256,  33.126
   151.2,0.000310,0.000105,0.003412,-0.000230,  33.111
   151.4,0.000279,0.000075,0.003652,-0.000191,  33.097
   151.6,0.000285,0.000074,0.004002,-0.000178,  33.072
   151.8,0.000299,0.000088,0.004450,-0.000191,  33.041
   152.0,0.000318,0.000107,0.004761,-0.000230,  33.033
   152.2,0.000343,0.000122,0.005074,-0.000256,  33.023
   152.4,0.000366,0.000150,0.005387,-0.000283,  33.019
   152.6,0.000394,0.000182,0.005731,-0.000335,  33.020
   152.8,0.000425,0.000175,0.006076,-0.000348,  33.024
   153.0,0.000405,0.000156,0.006441,-0.000335,  33.022
   153.2,0.000363,0.000124,0.006767,-0.000322,  33.020
   153.4,0.000290,0.000064,0.007060,-0.000322,  33.028
   153.6,0.000214,-0.000015,0.007335,-0.000309,  33.037
   153.8,0.000130,-0.000107,0.007583,-0.000322,  33.063
   154.0,0.000032,-0.000138,0.007819,-0.000361,  33.083
   154.2,0.000019,-0.000140,0.008016,-0.000426,  33.098
   154.4,0.000047,-0.000119,0.008042,-0.000517,  33.110
   154.6,0.000118,-0.000087,0.007964,-0.000556,  33.129
   154.8,0.000186,-0.000030,0.007788,-0.000608,  33.137
   155.0,0.000270,0.000044,0.007689,-0.000647,  33.140
   155.2,0.000370,0.000110,0.007591,-0.000647,  33.152
   155.4,0.000474,0.000189,0.007472,-0.000595,  33.157
   155.6,0.000586,0.000277,0.007308,-0.000578,  33.154
   155.8,0.000709,0.000330,0.007106,-0.000452,  33.147
   156.0,0.000776,0.000377,0.006884,-0.000435,  33.148
   156.2,0.000815,0.000402,0.007002,-0.000383,  33.131
   156.4,0.000835,0.000414,0.007284,-0.000296,  33.122
   156.6,0.000863,0.000421,0.007729,-0.000243,  33.105
   156.8,0.000880,0.000412,0.008325,-0.000217,  33.079
   157.0,0.000891,0.000424,0.008921,-0.000191,  33.057
   157.2,0.000922,0.000443,0.009618,-0.000204,  33.051
   157.4,0.000951,0.000465,0.010413,-0.000243,  33.046
   157.6,0.000991,0.000488,0.010914,-0.000322,  33.031
   157.8,0.001017,0.000505,0.011310,-0.000335,  33.035
   158.0,0.001032,0.000522,0.011574,-0.000348,  33.031
   158.2,0.001040,0.000535,0.011951,-0.000361,  33.032
   158.4,0.000992,0.000499,0.012340,-0.000361,  33.030
   158.6,0.000922,0.000448,0.012718,-0.000348,  33.034
   158.8,0.000815,0.000368,0.013009,-0.000335,  33.047
   159.0,0.000772,0.000317,0.013287,-0.000348,  33.060
   159.2,0.000758,0.000279,0.013526,-0.000374,  33.080
   159.4,0.000758,0.000241,0.013811,-0.000400,  33.097
   159.6,0.000785,0.000245,0.014090,-0.000452,  33.109
   159.8,0.000843,0.000286,0.014362,-0.000543,  33.133
   160.0,0.000925,0.000350,0.014369,-0.000634,  33.140
   160.2,0.001027,0.000416,0.014249,-0.000621,  33.151
   160.4,0.001162,0.000493,0.013990,-0.000582,  33.153
   160.6,0.001328,0.000591,0.013811,-0.000504,  33.157
   160.8,0.001466,0.000681,0.013565,-0.000439,  33.157
   161.0,0.001606,0.000774,0.013320,-0.000374,  33.155
   161.2,0.001746,0.000872,0.013274,-0.000322,  33.153
   161.4,0.001822,0.000921,0.013294,-0.000270,  33.140
   161.6,0.001864,0.000942,0.013394,-0.000217,  33.123
   161.8,0.001875,0.000938,0.014243,-0.000204,  33.103
   162.0,0.001857,0.000961,0.015520,-0.000191,  33.078
   162.2,0.001889,0.000985,0.017209,-0.000191,  33.052
   162.4,0.001929,0.001008,0.018273,-0.000217,  33.041
   162.6,0.001974,0.001036,0.019227,-0.000243,  33.033
   162.8,0.002012,0.001068,0.020067,-0.000270,  33.030
   163.0,0.002051,0.001097,0.020748,-0.000322,  33.027
   163.2,0.002097,0.001104,0.021328,-0.000335,  33.030
   163.4,0.002094,0.001093,0.021754,-0.000335,  33.032
   163.6,0.002063,0.001072,0.022173,-0.000335,  33.033
   163.8,0.002010,0.001023,0.022532,-0.000335,  33.036
   164.0,0.001955,0.000951,0.022809,-0.000335,  33.042
   164.2,0.001874,0.000857,0.023114,-0.000335,  33.058
   164.4,0.001775,0.000833,0.023412,-0.000374,  33.081
   164.6,0.001779,0.000835,0.023663,-0.000400,  33.099
   164.8,0.001813,0.000867,0.023840,-0.000500,  33.115
   165.0,0.001882,0.000911,0.023955,-0.000530,  33.129
   165.2,0.001972,0.000973,0.024010,-0.000604,  33.139
   165.4,0.002090,0.001063,0.023935,-0.000617,  33.149
   165.6,0.002236,0.001164,0.023786,-0.000595,  33.154
   165.8,0.002396,0.001281,0.023521,-0.000556,  33.162
   166.0,0.002576,0.001409,0.023168,-0.000491,  33.160
   166.2,0.002780,0.001494,0.023121,-0.000413,  33.166
   166.4,0.002916,0.001564,0.023128,-0.000361,  33.160
   166.6,0.003040,0.001624,0.023196,-0.000322,  33.143
   166.8,0.003146,0.001668,0.024038,-0.000283,  33.128
   167.0,0.003223,0.001707,0.025324,-0.000243,  33.114
   167.2,0.003288,0.001742,0.027011,-0.000230,  33.085
   167.4,0.003330,0.001757,0.028492,-0.000217,  33.055
   167.6,0.003395,0.001786,0.030081,-0.000230,  33.043
   167.8,0.003460,0.001831,0.031766,-0.000270,  33.025
   168.0,0.003519,0.001874,0.032859,-0.000348,  33.025
   168.2,0.003564,0.001905,0.033691,-0.000374,  33.024
   168.4,0.003598,0.001934,0.034274,-0.000374,  33.025
   168.6,0.003623,0.001959,0.034970,-0.000374,  33.023
   168.8,0.003601,0.001940,0.035605,-0.000374,  33.017
   169.0,0.003547,0.001899,0.036178,-0.000361,  33.022
   169.2,0.003463,0.001838,0.036682,-0.000335,  33.031
   169.4,0.003432,0.001795,0.037143,-0.000335,  33.051
   169.6,0.003412,0.001754,0.037534,-0.000348,  33.067
   169.8,0.003406,0.001719,0.037984,-0.000387,  33.095
   170.0,0.003409,0.001727,0.038434,-0.000439,  33.106
   170.2,0.003452,0.001765,0.038863,-0.000517,  33.126
   170.4,0.003514,0.001829,0.038983,-0.000621,  33.138
   170.6,0.003601,0.001918,0.038940,-0.000595,  33.144
   170.8,0.003764,0.002038,0.038742,-0.000556,  33.157
   171.0,0.003976,0.002185,0.038446,-0.000478,  33.163
   171.2,0.004236,0.002323,0.038004,-0.000413,  33.163
   171.4,0.004473,0.002479,0.037449,-0.000361,  33.159
   171.6,0.004716,0.002652,0.037835,-0.000309,  33.158
   171.8,0.004967,0.002739,0.038601,-0.000256,  33.140
   172.0,0.005105,0.002801,0.039805,-0.000217,  33.130
   172.2,0.005198,0.002837,0.041528,-0.000178,  33.117
   172.4,0.005235,0.002879,0.043728,-0.000152,  33.085
   172.6,0.005302,0.002914,0.046402,-0.000165,  33.055
   172.8,0.005367,0.002943,0.048252,-0.000191,  33.044
   173.0,0.005425,0.002979,0.049907,-0.000204,  33.032
   173.2,0.005484,0.003016,0.051365,-0.000230,  33.028
   173.4,0.005538,0.003051,0.052467,-0.000304,  33.026
   173.6,0.005589,0.003064,0.053282,-0.000309,  33.027
   173.8,0.005600,0.003068,0.053814,-0.000343,  33.024
   174.0,0.005589,0.003059,0.054390,-0.000343,  33.029
   174.2,0.005552,0.003018,0.054844,-0.000322,  33.032
   174.4,0.005507,0.002963,0.055186,-0.000322,  33.039
   174.6,0.005442,0.002891,0.055390,-0.000309,  33.060
   174.8,0.005357,0.002870,0.055748,-0.000322,  33.089
   175.0,0.005371,0.002881,0.056083,-0.000361,  33.101
   175.2,0.005425,0.002909,0.056389,-0.000413,  33.117
   175.4,0.005512,0.002956,0.056502,-0.000504,  33.134
   175.6,0.005665,0.003021,0.056525,-0.000530,  33.140
   175.8,0.005872,0.003101,0.056408,-0.000556,  33.154
   176.0,0.006127,0.003207,0.056306,-0.000582,  33.155
   176.2,0.006416,0.003370,0.056125,-0.000543,  33.166
   176.4,0.006746,0.003566,0.055903,-0.000478,  33.168
   176.6,0.007115,0.003802,0.055963,-0.000400,  33.176
   176.8,0.007374,0.003971,0.056138,-0.000348,  33.165
   177.0,0.007595,0.004120,0.056415,-0.000309,  33.153
   177.2,0.007780,0.004261,0.058183,-0.000256,  33.140
   177.4,0.007923,0.004348,0.060784,-0.000217,  33.128
   177.6,0.008031,0.004403,0.064205,-0.000191,  33.098
   177.8,0.008096,0.004431,0.066673,-0.000165,  33.065
   178.0,0.008190,0.004486,0.069104,-0.000165,  33.054
   178.2,0.008276,0.004537,0.071477,-0.000217,  33.040
   178.4,0.008356,0.004590,0.072970,-0.000283,  33.037
   178.6,0.008416,0.004637,0.074008,-0.000296,  33.034
   178.8,0.008461,0.004676,0.074554,-0.000309,  33.035
   179.0,0.008489,0.004713,0.075309,-0.000322,  33.034
   179.2,0.008512,0.004699,0.075899,-0.000309,  33.034
   179.4,0.008489,0.004665,0.076346,-0.000309,  33.037
   179.6,0.008449,0.004608,0.077286,-0.000309,  33.045
   179.8,0.008387,0.004562,0.078389,-0.000309,  33.062
   180.0,0.008362,0.004517,0.079664,-0.000335,  33.083
   180.2,0.008328,0.004468,0.080634,-0.000361,  33.102
   180.4,0.008300,0.004478,0.081499,-0.000413,  33.116
   180.6,0.008358,0.004526,0.082279,-0.000491,  33.132
   180.8,0.008449,0.004603,0.082576,-0.000595,  33.147
   181.0,0.008571,0.004731,0.082574,-0.000595,  33.153
   181.2,0.008818,0.004912,0.082257,-0.000556,  33.162
   181.4,0.009152,0.005135,0.082128,-0.000478,  33.164
   181.6,0.009569,0.005349,0.081946,-0.000426,  33.172
   181.8,0.009931,0.005590,0.081711,-0.000361,  33.180
   182.0,0.010311,0.005852,0.082396,-0.000296,  33.172
   182.2,0.010713,0.006005,0.083496,-0.000256,  33.163
   182.4,0.010963,0.006121,0.085023,-0.000217,  33.146
   182.6,0.011146,0.006200,0.087896,-0.000226,  33.135
   182.8,0.011258,0.006282,0.091684,-0.000165,  33.103
   183.0,0.011396,0.006342,0.096422,-0.000187,  33.078
   183.2,0.011511,0.006396,0.099303,-0.000200,  33.060
   183.4,0.011602,0.006452,0.101723,-0.000165,  33.052
   183.6,0.011700,0.006512,0.103654,-0.000178,  33.048
   183.8,0.011786,0.006564,0.105076,-0.000230,  33.044
   184.0,0.011861,0.006594,0.106585,-0.000283,  33.043
   184.2,0.011901,0.006613,0.107825,-0.000283,  33.042
   184.4,0.011913,0.006618,0.108772,-0.000296,  33.044
   184.6,0.011898,0.006611,0.109777,-0.000296,  33.039
   184.8,0.011864,0.006578,0.110668,-0.000283,  33.050
   185.0,0.011809,0.006535,0.111439,-0.000283,  33.058
   185.2,0.011726,0.006465,0.111834,-0.000283,  33.074
   185.4,0.011750,0.006457,0.112004,-0.000309,  33.101
   185.6,0.011804,0.006463,0.111909,-0.000374,  33.118
   185.8,0.011893,0.006495,0.112467,-0.000452,  33.141
   186.0,0.012090,0.006572,0.113204,-0.000478,  33.150
   186.2,0.012346,0.006688,0.114112,-0.000517,  33.159
   186.4,0.012658,0.006839,0.114119,-0.000543,  33.170
   186.6,0.013038,0.007045,0.113778,-0.000504,  33.175
   186.8,0.013479,0.007302,0.113050,-0.000452,  33.190
   187.0,0.013979,0.007610,0.113190,-0.000361,  33.193
   187.2,0.014311,0.007845,0.113591,-0.000309,  33.185
   187.4,0.014588,0.008070,0.114226,-0.000256,  33.180
   187.6,0.014811,0.008283,0.116678,-0.000217,  33.173
   187.8,0.014976,0.008420,0.120187,-0.000178,  33.147
   188.0,0.015158,0.008506,0.124768,-0.000152,  33.141
   188.2,0.015312,0.008547,0.128599,-0.000126,  33.111
   188.4,0.015433,0.008624,0.132576,-0.000139,  33.087
   188.6,0.015560,0.008704,0.136731,-0.000178,  33.065
   188.8,0.015681,0.008780,0.139520,-0.000209,  33.060
   189.0,0.015794,0.008845,0.141686,-0.000270,  33.059
   189.2,0.015886,0.008906,0.143219,-0.000270,  33.048
   189.4,0.015973,0.008970,0.144639,-0.000235,  33.048
   189.6,0.016050,0.008979,0.145705,-0.000256,  33.049
   189.8,0.016067,0.008966,0.146384,-0.000243,  33.045
   190.0,0.016044,0.008927,0.147261,-0.000230,  33.051
   190.2,0.015989,0.008874,0.148038,-0.000230,  33.061
   190.4,0.015939,0.008809,0.148707,-0.000230,  33.079
   190.6,0.015873,0.008728,0.149153,-0.000270,  33.102
   190.8,0.015789,0.008730,0.149444,-0.000309,  33.117
   191.0,0.015839,0.008766,0.149526,-0.000348,  33.139
   191.2,0.015929,0.008836,0.149850,-0.000461,  33.146
   191.4,0.016074,0.008975,0.150171,-0.000491,  33.157
   191.6,0.016365,0.009165,0.150510,-0.000526,  33.167
   191.8,0.016740,0.009401,0.150540,-0.000526,  33.172
   192.0,0.017201,0.009657,0.150435,-0.000465,  33.174
   192.2,0.017649,0.009947,0.150191,-0.000413,  33.180
   192.4,0.018130,0.010268,0.149801,-0.000348,  33.187
   192.6,0.018643,0.010477,0.150828,-0.000296,  33.174
   192.8,0.018979,0.010641,0.152332,-0.000243,  33.151
   193.0,0.019236,0.010762,0.154293,-0.000204,  33.144
   193.2,0.019417,0.010875,0.157630,-0.000178,  33.125
   193.4,0.019610,0.010958,0.161876,-0.000152,  33.097
   193.6,0.019771,0.011016,0.167076,-0.000152,  33.072
   193.8,0.019897,0.011049,0.170574,-0.000178,  33.063
   194.0,0.020037,0.011127,0.173699,-0.000191,  33.062
   194.2,0.020169,0.011211,0.176415,-0.000230,  33.061
   194.4,0.020292,0.011303,0.178704,-0.000296,  33.053
   194.6,0.020377,0.011360,0.180587,-0.000296,  33.051
   194.8,0.020438,0.011404,0.182048,-0.000296,  33.049
   195.0,0.020476,0.011434,0.183549,-0.000296,  33.052
   195.2,0.020478,0.011434,0.184812,-0.000283,  33.052
   195.4,0.020464,0.011410,0.185868,-0.000283,  33.062
   195.6,0.020420,0.011360,0.186987,-0.000283,  33.084
   195.8,0.020442,0.011355,0.187996,-0.000309,  33.107
   196.0,0.020495,0.011360,0.188948,-0.000361,  33.115
   196.2,0.020572,0.011369,0.189989,-0.000439,  33.136
   196.4,0.020684,0.011432,0.190985,-0.000478,  33.144
   196.6,0.020830,0.011528,0.191998,-0.000504,  33.156
   196.8,0.021000,0.011657,0.192138,-0.000556,  33.162
   197.0,0.021212,0.011873,0.191811,-0.000530,  33.168
   197.2,0.021609,0.012152,0.191038,-0.000465,  33.172
   197.4,0.022101,0.012503,0.190905,-0.000387,  33.171
   197.6,0.022695,0.012777,0.190859,-0.000322,  33.175
   197.8,0.023134,0.013050,0.190886,-0.000270,  33.168
   198.0,0.023550,0.013322,0.193213,-0.000230,  33.160
   198.2,0.023926,0.013492,0.196731,-0.000178,  33.149
   198.4,0.024191,0.013617,0.201475,-0.000139,  33.138
   198.6,0.024392,0.013682,0.205776,-0.000126,  33.120
   198.8,0.024522,0.013780,0.210469,-0.000139,  33.091
   199.0,0.024684,0.013876,0.215551,-0.000165,  33.079
   199.2,0.024832,0.013962,0.218837,-0.000230,  33.072
   199.4,0.024966,0.014038,0.221384,-0.000256,  33.069
   199.6,0.025087,0.014110,0.223148,-0.000270,  33.066
   199.8,0.025191,0.014176,0.224914,-0.000283,  33.065
   200.0,0.025274,0.014195,0.226268,-0.000296,  33.061
   200.2,0.025312,0.014193,0.227237,-0.000283,  33.055
   200.4,0.025315,0.014172,0.227292,-0.000317,  33.058
   200.6,0.025283,0.014130,0.226650,-0.000270,  33.068
   200.8,0.025247,0.014082,0.225363,-0.000304,  33.089
   201.0,0.025191,0.014015,0.225758,-0.000330,  33.103
   201.2,0.025114,0.014027,0.226688,-0.000309,  33.115
   201.4,0.025176,0.014075,0.228121,-0.000348,  33.133
   201.6,0.025297,0.014161,0.230062,-0.000426,  33.141
   201.8,0.025472,0.014281,0.230981,-0.000530,  33.148
   202.0,0.025804,0.014427,0.231793,-0.000530,  33.155
   202.2,0.026246,0.014618,0.232500,-0.000517,  33.159
   202.4,0.026798,0.014839,0.232678,-0.000478,  33.162
   202.6,0.027301,0.015117,0.232575,-0.000426,  33.165
   202.8,0.027837,0.015443,0.232156,-0.000361,  33.162
   203.0,0.028410,0.015810,0.233476,-0.000296,  33.158
   203.2,0.028783,0.016045,0.235512,-0.000243,  33.151
   203.4,0.029073,0.016237,0.238315,-0.000204,  33.140
   203.6,0.029277,0.016377,0.242170,-0.000178,  33.127
   203.8,0.029492,0.016509,0.246962,-0.000152,  33.099
   204.0,0.029668,0.016621,0.252736,-0.000139,  33.084
   204.2,0.029803,0.016710,0.256924,-0.000152,  33.068
   204.4,0.029959,0.016809,0.260752,-0.000165,  33.063
   204.6,0.030093,0.016899,0.264243,-0.000204,  33.052
   204.8,0.030219,0.016989,0.266775,-0.000256,  33.049
   205.0,0.030309,0.017055,0.268633,-0.000270,  33.050
   205.2,0.030375,0.017099,0.269774,-0.000270,  33.048
   205.4,0.030414,0.017135,0.271177,-0.000256,  33.045
   205.6,0.030426,0.017135,0.272303,-0.000256,  33.044
   205.8,0.030422,0.017110,0.273215,-0.000256,  33.050
   206.0,0.030411,0.017064,0.274076,-0.000256,  33.057
   206.2,0.030372,0.017058,0.274758,-0.000283,  33.072
   206.4,0.030399,0.017052,0.275299,-0.000335,  33.092
   206.6,0.030444,0.017049,0.276293,-0.000413,  33.096
   206.8,0.030519,0.017124,0.277434,-0.000439,  33.113
   207.0,0.030702,0.017237,0.278697,-0.000478,  33.113
   207.2,0.030948,0.017382,0.278750,-0.000530,  33.119
   207.4,0.031264,0.017620,0.278304,-0.000491,  33.136
   207.6,0.031697,0.017921,0.277298,-0.000439,  33.136
   207.8,0.032217,0.018287,0.277249,-0.000361,  33.137
   208.0,0.032829,0.018579,0.277402,-0.000309,  33.141
   208.2,0.033293,0.018871,0.277788,-0.000270,  33.133
   208.4,0.033725,0.019150,0.280464,-0.000252,  33.124
   208.6,0.034127,0.019326,0.284417,-0.000204,  33.116
   208.8,0.034412,0.019462,0.289644,-0.000200,  33.101
   209.0,0.034620,0.019537,0.293392,-0.000161,  33.078
   209.2,0.034754,0.019646,0.297046,-0.000113,  33.059
   209.4,0.034929,0.019755,0.300597,-0.000126,  33.037
   209.6,0.035090,0.019846,0.304002,-0.000152,  33.034
   209.8,0.035232,0.019932,0.306892,-0.000230,  33.026
   210.0,0.035366,0.020017,0.309519,-0.000256,  33.024
   210.2,0.035479,0.020090,0.311813,-0.000256,  33.022
   210.4,0.035573,0.020128,0.313602,-0.000270,  33.019
   210.6,0.035625,0.020138,0.314974,-0.000256,  33.017
   210.8,0.035634,0.020139,0.315924,-0.000243,  33.014
   211.0,0.035610,0.020105,0.317043,-0.000230,  33.011
   211.2,0.035573,0.020067,0.318031,-0.000230,  33.020
   211.4,0.035521,0.020018,0.318901,-0.000230,  33.032
   211.6,0.035452,0.019952,0.319887,-0.000256,  33.041
   211.8,0.035509,0.019962,0.320815,-0.000322,  33.051
   212.0,0.035633,0.020016,0.321724,-0.000400,  33.056
   212.2,0.035813,0.020106,0.322149,-0.000491,  33.061
   212.4,0.036122,0.020263,0.322310,-0.000491,  33.065
   212.6,0.036536,0.020481,0.322188,-0.000478,  33.080
   212.8,0.037053,0.020759,0.322006,-0.000426,  33.082
   213.0,0.037525,0.021023,0.321682,-0.000374,  33.079
   213.2,0.038028,0.021317,0.321211,-0.000335,  33.084
   213.4,0.038566,0.021635,0.322364,-0.000283,  33.078
   213.6,0.038914,0.021860,0.324264,-0.000230,  33.068
   213.8,0.039186,0.022059,0.326909,-0.000217,  33.052
   214.0,0.039366,0.022227,0.330472,-0.000191,  33.038
   214.2,0.039479,0.022369,0.334890,-0.000165,  33.026
   214.4,0.039678,0.022497,0.340184,-0.000178,  33.006
   214.6,0.039871,0.022602,0.344292,-0.000191,  32.994
   214.8,0.040061,0.022708,0.348216,-0.000204,  32.977
   215.0,0.040230,0.022817,0.351988,-0.000243,  32.973
   215.2,0.040383,0.022919,0.354569,-0.000283,  32.967
   215.4,0.040518,0.023000,0.356448,-0.000283,  32.964
   215.6,0.040626,0.023060,0.357550,-0.000283,  32.957
   215.8,0.040715,0.023112,0.359010,-0.000270,  32.946
   216.0,0.040773,0.023128,0.360275,-0.000243,  32.935
   216.2,0.040801,0.023119,0.361331,-0.000243,  32.933
   216.4,0.040804,0.023078,0.362448,-0.000243,  32.931
   216.6,0.040773,0.023065,0.363522,-0.000256,  32.943
   216.8,0.040792,0.023049,0.364503,-0.000283,  32.950
   217.0,0.040811,0.023031,0.365553,-0.000348,  32.954
   217.2,0.040832,0.023087,0.366582,-0.000378,  32.965
   217.4,0.040983,0.023177,0.367589,-0.000452,  32.970
   217.6,0.041198,0.023302,0.367746,-0.000456,  32.974
   217.8,0.041471,0.023521,0.367529,-0.000495,  32.977
   218.0,0.041870,0.023803,0.366804,-0.000491,  32.974
   218.2,0.042372,0.024153,0.365715,-0.000439,  32.979
   218.4,0.042974,0.024390,0.365486,-0.000326,  32.978
   218.6,0.043425,0.024605,0.365317,-0.000309,  32.975
   218.8,0.043843,0.024803,0.365261,-0.000256,  32.961
   219.0,0.044232,0.024972,0.367616,-0.000182,  32.958
   219.2,0.044502,0.025115,0.371228,-0.000178,  32.947
   219.4,0.044687,0.025243,0.376098,-0.000152,  32.924
   219.6,0.044799,0.025349,0.380099,-0.000126,  32.905
   219.8,0.044960,0.025454,0.384313,-0.000139,  32.883
   220.0,0.045106,0.025552,0.388712,-0.000165,  32.874
   220.2,0.045240,0.025644,0.391901,-0.000230,  32.859
   220.4,0.045361,0.025725,0.394505,-0.000256,  32.850
   220.6,0.045472,0.025802,0.396547,-0.000256,  32.841
   220.8,0.045565,0.025881,0.398293,-0.000270,  32.833
   221.0,0.045621,0.025917,0.399536,-0.000256,  32.817
   221.2,0.045649,0.025932,0.400297,-0.000256,  32.806
   221.4,0.045652,0.025926,0.401352,-0.000243,  32.800
   221.6,0.045634,0.025908,0.402227,-0.000243,  32.792
   221.8,0.045587,0.025867,0.403007,-0.000243,  32.804
   222.0,0.045516,0.025805,0.403951,-0.000270,  32.807
   222.2,0.045544,0.025821,0.404865,-0.000309,  32.809
   222.4,0.045615,0.025862,0.405780,-0.000387,  32.813
   222.6,0.045714,0.025930,0.406468,-0.000478,  32.812
   222.8,0.045864,0.026105,0.406999,-0.000478,  32.813
   223.0,0.046236,0.026356,0.407440,-0.000452,  32.818
   223.2,0.046728,0.026675,0.407236,-0.000413,  32.820
   223.4,0.047342,0.026977,0.406671,-0.000374,  32.817
   223.6,0.047878,0.027309,0.405715,-0.000322,  32.817
   223.8,0.048434,0.027666,0.407052,-0.000270,  32.812
   224.0,0.049013,0.027903,0.409316,-0.000217,  32.806
   224.2,0.049401,0.028100,0.412595,-0.000191,  32.796
   224.4,0.049695,0.028245,0.416616,-0.000165,  32.786
   224.6,0.049915,0.028390,0.421557,-0.000139,  32.771
   224.8,0.050141,0.028517,0.427421,-0.000139,  32.738
   225.0,0.050322,0.028616,0.431618,-0.000152,  32.720
   225.2,0.050480,0.028728,0.435413,-0.000165,  32.699
   225.4,0.050643,0.028830,0.438759,-0.000178,  32.677
   225.6,0.050784,0.028928,0.441238,-0.000239,  32.658
   225.8,0.050919,0.029005,0.443039,-0.000256,  32.632
   226.0,0.051023,0.029061,0.444119,-0.000304,  32.624
   226.2,0.051092,0.029104,0.445473,-0.000304,  32.603
   226.4,0.051139,0.029115,0.446593,-0.000256,  32.578
   226.6,0.051161,0.029101,0.447477,-0.000243,  32.565
   226.8,0.051155,0.029064,0.447882,-0.000230,  32.565
   227.0,0.051123,0.029040,0.447916,-0.000230,  32.566
   227.2,0.051127,0.029005,0.447552,-0.000256,  32.569
   227.4,0.051133,0.028972,0.446834,-0.000296,  32.571
   227.6,0.051145,0.028997,0.447762,-0.000374,  32.575
   227.8,0.051325,0.029059,0.449115,-0.000426,  32.575
   228.0,0.051586,0.029145,0.450861,-0.000478,  32.580
   228.2,0.051929,0.029265,0.451026,-0.000517,  32.580
   228.4,0.052393,0.029512,0.450471,-0.000478,  32.582
   228.6,0.052958,0.029830,0.449302,-0.000439,  32.583
   228.8,0.053621,0.030216,0.449219,-0.000361,  32.579
   229.0,0.054128,0.030525,0.449287,-0.000309,  32.575
   229.2,0.054609,0.030827,0.449566,-0.000256,  32.569
   229.4,0.055066,0.031125,0.452458,-0.000230,  32.552
   229.6,0.055384,0.031324,0.456755,-0.000204,  32.533
   229.8,0.055609,0.031469,0.462524,-0.000165,  32.506
   230.0,0.055762,0.031568,0.467467,-0.000139,  32.476
   230.2,0.055953,0.031688,0.472659,-0.000152,  32.451
   230.4,0.056111,0.031804,0.478177,-0.000191,  32.429
   230.6,0.056258,0.031911,0.481923,-0.000243,  32.403
   230.8,0.056395,0.032005,0.484837,-0.000256,  32.376
   231.0,0.056512,0.032091,0.486975,-0.000270,  32.357
   231.2,0.056614,0.032174,0.489823,-0.000283,  32.337
   231.4,0.056685,0.032215,0.492604,-0.000283,  32.316
   231.6,0.056710,0.032227,0.495321,-0.000283,  32.290
   231.8,0.056729,0.032216,0.496528,-0.000270,  32.274
   232.0,0.056704,0.032191,0.496932,-0.000256,  32.258
   232.2,0.056669,0.032145,0.496494,-0.000270,  32.260
   232.4,0.056612,0.032079,0.496985,-0.000296,  32.262
   232.6,0.056516,0.032090,0.497471,-0.000335,  32.267
   232.8,0.056592,0.032135,0.497956,-0.000413,  32.270
   233.0,0.056732,0.032206,0.498430,-0.000517,  32.274
   233.2,0.056949,0.032395,0.498830,-0.000517,  32.274
   233.4,0.057351,0.032660,0.499163,-0.000504,  32.279
   233.6,0.057881,0.033003,0.498902,-0.000452,  32.279
   233.8,0.058552,0.033328,0.498303,-0.000400,  32.281
   234.0,0.059144,0.033674,0.497435,-0.000335,  32.284
   234.2,0.059760,0.034062,0.498845,-0.000270,  32.283
   234.4,0.060421,0.034330,0.501257,-0.000217,  32.268
   234.6,0.060871,0.034554,0.504667,-0.000178,  32.251
   234.8,0.061218,0.034740,0.508641,-0.000139,  32.232
   235.0,0.061489,0.034898,0.513362,-0.000113,  32.220
   235.2,0.061750,0.035024,0.518852,-0.000100,  32.187
   235.4,0.061956,0.035123,0.523445,-0.000148,  32.151
   235.6,0.062121,0.035245,0.527887,-0.000126,  32.117
   235.8,0.062315,0.035362,0.532299,-0.000200,  32.075
   236.0,0.062496,0.035480,0.535201,-0.000239,  32.058
   236.2,0.062671,0.035572,0.537238,-0.000256,  32.025
   236.4,0.062807,0.035646,0.538490,-0.000283,  32.003
   236.6,0.062916,0.035708,0.538863,-0.000283,  31.971
   236.8,0.063003,0.035736,0.540313,-0.000270,  31.939
   237.0,0.063048,0.035738,0.541691,-0.000243,  31.917
   237.2,0.063071,0.035718,0.542984,-0.000230,  31.904
   237.4,0.063058,0.035680,0.544351,-0.000230,  31.890
   237.6,0.063074,0.035650,0.545638,-0.000243,  31.891
   237.8,0.063103,0.035606,0.546916,-0.000283,  31.898
   238.0,0.063129,0.035553,0.548212,-0.000361,  31.897
   238.2,0.063358,0.035637,0.549466,-0.000426,  31.897
   238.4,0.063695,0.035787,0.550645,-0.000504,  31.900
   238.6,0.064142,0.036001,0.550959,-0.000595,  31.896
   238.8,0.064667,0.036277,0.550782,-0.000582,  31.901
   239.0,0.065284,0.036620,0.550058,-0.000517,  31.903
   239.2,0.065993,0.037034,0.550430,-0.000413,  31.894
   239.4,0.066559,0.037368,0.551005,-0.000348,  31.887
   239.6,0.067097,0.037708,0.551810,-0.000283,  31.886
   239.8,0.067610,0.038051,0.554890,-0.000217,  31.863
   240.0,0.067953,0.038259,0.559169,-0.000165,  31.841
   240.2,0.068205,0.038409,0.564795,-0.000113,  31.814
   240.4,0.068342,0.038502,0.569821,-0.000087,  31.783
   240.6,0.068394,0.038629,0.575201,-0.000100,  31.745
   240.8,0.068587,0.038745,0.580943,-0.000126,  31.700
   241.0,0.068797,0.038854,0.584929,-0.000204,  31.680
   241.2,0.069004,0.038960,0.588111,-0.000278,  31.639
   241.4,0.069194,0.039067,0.590472,-0.000317,  31.607
   241.6,0.069367,0.039169,0.592919,-0.000370,  31.574
   241.8,0.069541,0.039239,0.594961,-0.000430,  31.533
   242.0,0.069676,0.039287,0.596506,-0.000444,  31.508
   242.2,0.069774,0.039323,0.598280,-0.000409,  31.478
   242.4,0.069863,0.039322,0.599966,-0.000422,  31.455
   242.6,0.069906,0.039313,0.601466,-0.000448,  31.450
   242.8,0.069905,0.039280,0.603164,-0.000461,  31.452
   243.0,0.069883,0.039394,0.604869,-0.000500,  31.448
   243.2,0.070136,0.039566,0.606529,-0.000565,  31.451
   243.4,0.070507,0.039805,0.607895,-0.000630,  31.452
   243.6,0.071007,0.040075,0.609018,-0.000721,  31.449
   243.8,0.071524,0.040398,0.609993,-0.000743,  31.450
   244.0,0.072108,0.040772,0.610996,-0.000656,  31.451
   244.2,0.072775,0.041105,0.611882,-0.000565,  31.447
   244.4,0.073367,0.041445,0.612658,-0.000474,  31.440
   244.6,0.073957,0.041805,0.614262,-0.000370,  31.431
   244.8,0.074564,0.042057,0.616303,-0.000252,  31.417
   245.0,0.074986,0.042262,0.618641,-0.000174,  31.407
   245.2,0.075308,0.042422,0.621427,-0.000109,  31.385
   245.4,0.075554,0.042543,0.625579,-0.000057,  31.368
   245.6,0.075784,0.042620,0.630587,-0.000031,  31.341
   245.8,0.075957,0.042660,0.636461,-0.000005,  31.287
   246.0,0.076087,0.042658,0.640661,-0.000005,  31.255
   246.2,0.076263,0.042735,0.644413,-0.000044,  31.226
   246.4,0.076433,0.042822,0.647766,-0.000122,  31.187
   246.6,0.076613,0.042918,0.650559,-0.000252,  31.145
   246.8,0.076780,0.042999,0.652896,-0.000317,  31.103
   247.0,0.076934,0.043079,0.654657,-0.000370,  31.082
   247.2,0.077091,0.043154,0.656725,-0.000409,  31.044
   247.4,0.077201,0.043194,0.658685,-0.000448,  31.010
   247.6,0.077281,0.043212,0.660361,-0.000461,  30.984
   247.8,0.077351,0.043208,0.662181,-0.000474,  30.972
   248.0,0.077522,0.043240,0.663956,-0.000513,  30.972
   248.2,0.077732,0.043285,0.665626,-0.000565,  30.974
   248.4,0.077996,0.043334,0.667150,-0.000643,  30.976
   248.6,0.078465,0.043578,0.668460,-0.000721,  30.976
   248.8,0.079051,0.043922,0.669680,-0.000799,  30.973
   249.0,0.079770,0.044373,0.669947,-0.000877,  30.973
   249.2,0.080260,0.044716,0.669633,-0.000812,  30.976
   249.4,0.080701,0.045064,0.668748,-0.000695,  30.971
   249.6,0.081089,0.045407,0.671143,-0.000513,  30.971
   249.8,0.081422,0.045694,0.674893,-0.000383,  30.963
   250.0,0.081820,0.045948,0.679968,-0.000252,  30.953
   250.2,0.082222,0.046181,0.684350,-0.000148,  30.940
   250.4,0.082618,0.046318,0.689162,-0.000035,  30.914
   250.6,0.082854,0.046391,0.694283,0.000030,  30.896
   250.8,0.083007,0.046401,0.698703,0.000069,  30.850
   251.0,0.083085,0.046460,0.702793,0.000091,  30.815
   251.2,0.083227,0.046500,0.706733,0.000039,  30.778
   251.4,0.083352,0.046536,0.709733,-0.000087,  30.735
   251.6,0.083484,0.046597,0.712039,-0.000152,  30.697
   251.8,0.083637,0.046670,0.713711,-0.000217,  30.653
   252.0,0.083793,0.046750,0.715631,-0.000322,  30.625
   252.2,0.083962,0.046805,0.717284,-0.000374,  30.601
   252.4,0.084098,0.046857,0.718674,-0.000400,  30.569
   252.6,0.084220,0.046904,0.720413,-0.000461,  30.539
   252.8,0.084325,0.046914,0.722098,-0.000439,  30.517
   253.0,0.084400,0.046907,0.723797,-0.000513,  30.516
   253.2,0.084451,0.046878,0.725570,-0.000539,  30.518
   253.4,0.084475,0.047081,0.727433,-0.000543,  30.520
   253.6,0.084882,0.047391,0.729235,-0.000608,  30.530
   253.8,0.085467,0.047807,0.730622,-0.000712,  30.534
   254.0,0.086230,0.048126,0.731806,-0.000829,  30.535
   254.2,0.086752,0.048449,0.732639,-0.000803,  30.535
   254.4,0.087241,0.048776,0.733271,-0.000725,  30.539
   254.6,0.087699,0.048997,0.735356,-0.000595,  30.539
   254.8,0.088076,0.049167,0.737816,-0.000478,  30.535
   255.0,0.088391,0.049293,0.740637,-0.000348,  30.536
   255.2,0.088648,0.049362,0.744034,-0.000191,  30.528
   255.4,0.088840,0.049457,0.747967,-0.000087,  30.514
   255.6,0.088967,0.049533,0.752366,-0.000009,  30.496
   255.8,0.089039,0.049588,0.754772,0.000056,  30.466
   256.0,0.089118,0.049609,0.756356,0.000109,  30.442
   256.2,0.089159,0.049599,0.756970,0.000122,  30.404
   256.4,0.089193,0.049564,0.758816,0.000109,  30.369
   256.6,0.089279,0.049578,0.760758,0.000056,  30.349
   256.8,0.089368,0.049614,0.762804,-0.000022,  30.317
   257.0,0.089482,0.049661,0.764323,-0.000152,  30.302
   257.2,0.089602,0.049708,0.765636,-0.000217,  30.282
   257.4,0.089733,0.049768,0.766571,-0.000270,  30.265
   257.6,0.089870,0.049837,0.767562,-0.000322,  30.245
   257.8,0.089953,0.049858,0.768444,-0.000348,  30.222
   258.0,0.090011,0.049851,0.769053,-0.000361,  30.214
   258.2,0.090042,0.049823,0.770483,-0.000387,  30.204
   258.4,0.090193,0.049880,0.772202,-0.000426,  30.215
   258.6,0.090369,0.049968,0.774130,-0.000491,  30.228
   258.8,0.090606,0.050077,0.775865,-0.000569,  30.235
   259.0,0.090872,0.050306,0.777542,-0.000634,  30.251
   259.2,0.091247,0.050606,0.779065,-0.000699,  30.254
   259.4,0.091693,0.050975,0.780122,-0.000790,  30.258
   259.6,0.092197,0.051161,0.780800,-0.000738,  30.263
   259.8,0.092456,0.051295,0.781168,-0.000621,  30.267
   260.0,0.092616,0.051373,0.783953,-0.000465,  30.268
   260.2,0.092688,0.051445,0.787716,-0.000361,  30.277
   260.4,0.092792,0.051497,0.792640,-0.000270,  30.270
   260.6,0.092858,0.051526,0.795106,-0.000191,  30.259
   260.8,0.092903,0.051521,0.796948,-0.000126,  30.237
   261.0,0.092920,0.051495,0.797997,-0.000074,  30.228
   261.2,0.092907,0.051445,0.798528,-0.000035,  30.202
   261.4,0.092879,0.051433,0.798366,-0.000022,  30.175
   261.6,0.092892,0.051435,0.797424,-0.000022,  30.150
   261.8,0.092907,0.051440,0.797659,-0.000109,  30.130
   262.0,0.092948,0.051454,0.798177,-0.000126,  30.124
   262.2,0.093000,0.051488,0.798818,-0.000187,  30.108
   262.4,0.093055,0.051531,0.799364,-0.000226,  30.103
   262.6,0.093142,0.051543,0.799925,-0.000243,  30.103
   262.8,0.093187,0.051550,0.800418,-0.000270,  30.095
   263.0,0.093218,0.051550,0.800987,-0.000283,  30.093
   263.2,0.093246,0.051516,0.801550,-0.000283,  30.099
   263.4,0.093239,0.051459,0.802208,-0.000296,  30.103
   263.6,0.093201,0.051385,0.802698,-0.000309,  30.114
   263.8,0.093145,0.051445,0.803596,-0.000322,  30.135
   264.0,0.093391,0.051554,0.804654,-0.000374,  30.154
   264.2,0.093766,0.051734,0.805715,-0.000439,  30.164
   264.4,0.094287,0.051961,0.806448,-0.000556,  30.174
   264.6,0.094512,0.052097,0.806860,-0.000556,  30.186
   264.8,0.094652,0.052228,0.807108,-0.000517,  30.201
   265.0,0.094717,0.052365,0.808670,-0.000452,  30.204
   265.2,0.094714,0.052381,0.810502,-0.000387,  30.209
   265.4,0.094641,0.052355,0.812925,-0.000309,  30.213
   265.6,0.094495,0.052269,0.815110,-0.000217,  30.214
   265.8,0.094404,0.052209,0.817235,-0.000165,  30.209
   266.0,0.094304,0.052130,0.819454,-0.000113,  30.204
   266.2,0.094196,0.052034,0.819526,-0.000087,  30.194
   266.4,0.094140,0.051992,0.818496,-0.000061,  30.182
   266.6,0.094102,0.051958,0.816358,-0.000048,  30.157
   266.8,0.094085,0.051937,0.815070,-0.000048,  30.141
   267.0,0.094074,0.051932,0.813708,-0.000096,  30.142
   267.2,0.094081,0.051939,0.812190,-0.000135,  30.144
   267.4,0.094089,0.051960,0.811516,-0.000187,  30.146
   267.6,0.094120,0.051980,0.811100,-0.000222,  30.154
   267.8,0.094141,0.052001,0.811037,-0.000222,  30.168
   268.0,0.094179,0.052025,0.811037,-0.000187,  30.176
   268.2,0.094214,0.051999,0.811210,-0.000161,  30.188
   268.4,0.094189,0.051946,0.811473,-0.000148,  30.205
   268.6,0.094130,0.051867,0.811890,-0.000135,  30.225
   268.8,0.094057,0.051841,0.812460,-0.000148,  30.249
   269.0,0.094089,0.051829,0.813206,-0.000187,  30.271
   269.2,0.094162,0.051829,0.813708,-0.000252,  30.301
   269.4,0.094287,0.051886,0.814043,-0.000304,  30.312
   269.6,0.094380,0.051989,0.814385,-0.000383,  30.324
   269.8,0.094478,0.052128,0.814546,-0.000461,  30.344
   270.0,0.094596,0.052089,0.814546,-0.000448,  30.353
   270.2,0.094492,0.051989,0.814288,-0.000422,  30.361
   270.4,0.094276,0.051824,0.815793,-0.000343,  30.366
   270.6,0.093971,0.051686,0.818064,-0.000317,  30.376
   270.8,0.093735,0.051538,0.820935,-0.000291,  30.384
   271.0,0.093478,0.051376,0.820687,-0.000243,  30.382
   271.2,0.093218,0.051256,0.819165,-0.000209,  30.385
   271.4,0.093048,0.051161,0.816311,-0.000217,  30.378
   271.6,0.092920,0.051085,0.813859,-0.000204,  30.374
   271.8,0.092829,0.051039,0.810941,-0.000178,  30.361
   272.0,0.092760,0.051027,0.807596,-0.000178,  30.350
   272.2,0.092722,0.051042,0.803807,-0.000191,  30.355
   272.4,0.092702,0.051042,0.802080,-0.000230,  30.366
   272.6,0.092681,0.051049,0.800651,-0.000217,  30.385
   272.8,0.092678,0.051063,0.799814,-0.000191,  30.414
   273.0,0.092678,0.051080,0.799288,-0.000165,  30.434
   273.2,0.092640,0.051058,0.799012,-0.000126,  30.458
   273.4,0.092591,0.051034,0.799154,-0.000100,  30.481
   273.6,0.092536,0.051001,0.799276,-0.000048,  30.504
   273.8,0.092453,0.050929,0.799479,-0.000009,  30.540
   274.0,0.092349,0.050844,0.799857,-0.000009,  30.562
   274.2,0.092228,0.050736,0.800243,-0.000009,  30.598
   274.4,0.092242,0.050715,0.800466,-0.000048,  30.618
   274.6,0.092311,0.050722,0.800710,-0.000100,  30.643
   274.8,0.092446,0.050770,0.800622,-0.000204,  30.663
   275.0,0.092342,0.050722,0.800385,-0.000243,  30.680
   275.2,0.092142,0.050651,0.799911,-0.000270,  30.694
   275.4,0.091862,0.050544,0.799945,-0.000283,  30.703
   275.6,0.091558,0.050382,0.800161,-0.000317,  30.713
   275.8,0.091189,0.050182,0.800647,-0.000317,  30.730
   276.0,0.090779,0.049932,0.800897,-0.000291,  30.734
   276.2,0.090496,0.049740,0.800972,-0.000313,  30.737
   276.4,0.090266,0.049550,0.800951,-0.000300,  30.739
   276.6,0.090073,0.049364,0.798507,-0.000252,  30.731
   276.8,0.089925,0.049269,0.794865,-0.000239,  30.727
   277.0,0.089788,0.049219,0.789918,-0.000226,  30.723
   277.2,0.089695,0.049217,0.786334,-0.000239,  30.725
   277.4,0.089633,0.049200,0.782856,-0.000204,  30.733
   277.6,0.089578,0.049200,0.779399,-0.000204,  30.751
   277.8,0.089533,0.049217,0.777449,-0.000230,  30.789
   278.0,0.089523,0.049212,0.776135,-0.000169,  30.805
   278.2,0.089492,0.049215,0.775458,-0.000117,  30.837
   278.4,0.089454,0.049215,0.774768,-0.000100,  30.863
   278.6,0.089427,0.049158,0.774323,-0.000061,  30.892
   278.8,0.089341,0.049082,0.774190,-0.000022,  30.929
   279.0,0.089221,0.048980,0.774113,0.000017,  30.958
   279.2,0.089087,0.048901,0.774113,0.000030,  30.988
   279.4,0.089001,0.048828,0.774190,0.000017,  31.012
   279.6,0.088926,0.048762,0.774113,-0.000031,  31.042
   279.8,0.088877,0.048705,0.773891,-0.000035,  31.065
   280.0,0.088778,0.048664,0.773592,-0.000122,  31.085
   280.2,0.088655,0.048631,0.773356,-0.000200,  31.096
   280.4,0.088531,0.048472,0.773274,-0.000256,  31.111
   280.6,0.088219,0.048257,0.773031,-0.000283,  31.132
   280.8,0.087805,0.047980,0.772866,-0.000283,  31.143
   281.0,0.087302,0.047741,0.772810,-0.000270,  31.148
   281.2,0.086882,0.047488,0.772856,-0.000243,  31.157
   281.4,0.086456,0.047223,0.772910,-0.000243,  31.166
   281.6,0.086036,0.047050,0.770851,-0.000243,  31.166
   281.8,0.085750,0.046925,0.767657,-0.000217,  31.169
   282.0,0.085525,0.046829,0.763347,-0.000204,  31.168
   282.2,0.085386,0.046781,0.759173,-0.000191,  31.162
   282.4,0.085267,0.046732,0.754400,-0.000191,  31.159
   282.6,0.085178,0.046715,0.749108,-0.000204,  31.153
   282.8,0.085151,0.046718,0.745270,-0.000230,  31.175
   283.0,0.085096,0.046710,0.741847,-0.000217,  31.192
   283.2,0.085046,0.046720,0.738831,-0.000191,  31.222
   283.4,0.085018,0.046737,0.737348,-0.000165,  31.250
   283.6,0.084940,0.046703,0.736753,-0.000113,  31.276
   283.8,0.084838,0.046654,0.737171,-0.000074,  31.311
   284.0,0.084729,0.046590,0.736997,-0.000009,  31.334
   284.2,0.084593,0.046489,0.736970,0.000030,  31.364
   284.4,0.084441,0.046368,0.737020,0.000056,  31.396
   284.6,0.084267,0.046225,0.736817,0.000056,  31.422
   284.8,0.084155,0.046130,0.736493,0.000017,  31.455
   285.0,0.084064,0.046062,0.736049,-0.000048,  31.471
   285.2,0.083996,0.046011,0.735553,-0.000139,  31.489
   285.4,0.083840,0.045904,0.734911,-0.000191,  31.500
   285.6,0.083650,0.045789,0.734193,-0.000230,  31.520
   285.8,0.083423,0.045655,0.733895,-0.000270,  31.534
   286.0,0.083162,0.045440,0.733672,-0.000256,  31.544
   286.2,0.082770,0.045189,0.733520,-0.000243,  31.550
   286.4,0.082313,0.044890,0.732957,-0.000230,  31.557
   286.6,0.081776,0.044641,0.732193,-0.000204,  31.568
   286.8,0.081365,0.044401,0.731160,-0.000178,  31.569
   287.0,0.080971,0.044162,0.727836,-0.000178,  31.570
   287.2,0.080607,0.044009,0.723231,-0.000165,  31.568
   287.4,0.080368,0.043916,0.717324,-0.000152,  31.563
   287.6,0.080193,0.043860,0.712708,-0.000152,  31.560
   287.8,0.080106,0.043801,0.708009,-0.000152,  31.563
   288.0,0.079992,0.043773,0.703236,-0.000178,  31.579
   288.2,0.079891,0.043763,0.700511,-0.000217,  31.598
   288.4,0.079827,0.043726,0.698580,-0.000217,  31.619
   288.6,0.079726,0.043693,0.697624,-0.000204,  31.644
   288.8,0.079615,0.043653,0.696522,-0.000213,  31.675
   289.0,0.079515,0.043555,0.695870,-0.000174,  31.693
   289.2,0.079353,0.043435,0.695481,-0.000183,  31.718
   289.4,0.079155,0.043283,0.694914,-0.000122,  31.746
   289.6,0.078944,0.043187,0.694418,-0.000096,  31.767
   289.8,0.078810,0.043110,0.693999,-0.000083,  31.798
   290.0,0.078693,0.043044,0.693595,-0.000109,  31.816
   290.2,0.078616,0.042965,0.692834,-0.000161,  31.831
   290.4,0.078478,0.042899,0.692010,-0.000213,  31.855
   290.6,0.078318,0.042829,0.691049,-0.000291,  31.866
   290.8,0.078157,0.042703,0.690080,-0.000396,  31.880
   291.0,0.077816,0.042546,0.688952,-0.000374,  31.894
   291.2,0.077361,0.042366,0.687742,-0.000348,  31.908
   291.4,0.076827,0.042153,0.687054,-0.000296,  31.908
   291.6,0.076363,0.041910,0.686521,-0.000222,  31.917
   291.8,0.075877,0.041635,0.686204,-0.000196,  31.916
   292.0,0.075391,0.041327,0.683751,-0.000191,  31.920
   292.2,0.075046,0.041107,0.680331,-0.000152,  31.927
   292.4,0.074760,0.040921,0.675967,-0.000139,  31.928
   292.6,0.074547,0.040770,0.671291,-0.000126,  31.921
   292.8,0.074368,0.040668,0.666016,-0.000126,  31.913
   293.0,0.074236,0.040602,0.660105,-0.000139,  31.901
   293.2,0.074156,0.040579,0.656237,-0.000165,  31.906
   293.4,0.074050,0.040535,0.653031,-0.000165,  31.919
   293.6,0.073954,0.040502,0.650481,-0.000191,  31.941
   293.8,0.073874,0.040479,0.648810,-0.000191,  31.961
   294.0,0.073771,0.040423,0.647837,-0.000165,  31.973
   294.2,0.073675,0.040349,0.647495,-0.000152,  31.997
   294.4,0.073573,0.040265,0.646867,-0.000126,  32.010
   294.6,0.073470,0.040165,0.646304,-0.000113,  32.029
   294.8,0.073324,0.040040,0.645855,-0.000100,  32.056
   295.0,0.073172,0.039896,0.645394,-0.000100,  32.074
   295.2,0.073007,0.039810,0.644896,-0.000139,  32.096
   295.4,0.072871,0.039742,0.644336,-0.000204,  32.112
   295.6,0.072736,0.039687,0.643357,-0.000296,  32.128
   295.8,0.072627,0.039563,0.642005,-0.000335,  32.145
   296.0,0.072359,0.039415,0.640404,-0.000361,  32.154
   296.2,0.072012,0.039243,0.639725,-0.000374,  32.166
   296.4,0.071607,0.039023,0.639348,-0.000348,  32.170
   296.6,0.071168,0.038761,0.639232,-0.000309,  32.182
   296.8,0.070671,0.038462,0.637982,-0.000243,  32.182
   297.0,0.070132,0.038212,0.636296,-0.000204,  32.183
   297.2,0.069696,0.037964,0.634083,-0.000178,  32.195
   297.4,0.069275,0.037722,0.630041,-0.000187,  32.190
   297.6,0.068892,0.037560,0.624943,-0.000174,  32.182
   297.8,0.068633,0.037440,0.618721,-0.000183,  32.171
   298.0,0.068437,0.037361,0.613865,-0.000135,  32.161
   298.2,0.068329,0.037290,0.609121,-0.000122,  32.149
   298.4,0.068195,0.037237,0.604532,-0.000122,  32.155
   298.6,0.068074,0.037202,0.601747,-0.000161,  32.165
   298.8,0.067989,0.037154,0.599908,-0.000226,  32.174
   299.0,0.067874,0.037103,0.598841,-0.000226,  32.183
   299.2,0.067757,0.037050,0.598766,-0.000226,  32.197
   299.4,0.067642,0.036974,0.597848,-0.000213,  32.209
   299.6,0.067469,0.036883,0.597034,-0.000187,  32.223
   299.8,0.067270,0.036789,0.596424,-0.000161,  32.237
   300.0,0.067048,0.036678,0.595771,-0.000148,  32.252
   300.2,0.066911,0.036602,0.595170,-0.000161,  32.275
   300.4,0.066800,0.036540,0.594577,-0.000174,  32.290
   300.6,0.066725,0.036480,0.593812,-0.000239,  32.315
   300.8,0.066572,0.036399,0.592942,-0.000291,  32.323
   301.0,0.066383,0.036314,0.592023,-0.000357,  32.335
   301.2,0.066171,0.036224,0.591421,-0.000448,  32.343
   301.4,0.065813,0.036039,0.590869,-0.000435,  32.351
   301.6,0.065361,0.035821,0.590431,-0.000396,  32.364
   301.8,0.064826,0.035554,0.589375,-0.000317,  32.370
   302.0,0.064362,0.035299,0.588114,-0.000265,  32.376
   302.2,0.063882,0.035030,0.586447,-0.000226,  32.380
   302.4,0.063397,0.034750,0.583467,-0.000174,  32.374
   302.6,0.063041,0.034532,0.579696,-0.000135,  32.375
   302.8,0.062740,0.034337,0.575134,-0.000109,  32.365
   303.0,0.062501,0.034169,0.570327,-0.000083,  32.358
   303.2,0.062311,0.034052,0.565019,-0.000070,  32.348
   303.4,0.062172,0.033972,0.559222,-0.000096,  32.338
   303.6,0.062098,0.033933,0.555371,-0.000148,  32.331
   303.8,0.062069,0.033878,0.552182,-0.000126,  32.336
   304.0,0.061966,0.033832,0.549577,-0.000139,  32.339
   304.2,0.061859,0.033796,0.547764,-0.000178,  32.343
   304.4,0.061756,0.033722,0.546690,-0.000143,  32.354
   304.6,0.061618,0.033638,0.546257,-0.000143,  32.368
   304.8,0.061460,0.033545,0.545451,-0.000165,  32.372
   305.0,0.061283,0.033427,0.544826,-0.000152,  32.378
   305.2,0.061138,0.033299,0.544382,-0.000152,  32.387
   305.4,0.060996,0.033162,0.543874,-0.000152,  32.400
   305.6,0.060868,0.033065,0.543314,-0.000178,  32.425
   305.8,0.060717,0.032987,0.542807,-0.000256,  32.444
   306.0,0.060556,0.032927,0.541765,-0.000361,  32.445
   306.2,0.060399,0.032811,0.540382,-0.000400,  32.466
   306.4,0.060135,0.032679,0.538777,-0.000400,  32.472
   306.6,0.059817,0.032529,0.537612,-0.000435,  32.484
   306.8,0.059458,0.032332,0.536570,-0.000374,  32.491
   307.0,0.059061,0.032106,0.535618,-0.000370,  32.496
   307.2,0.058613,0.031848,0.534071,-0.000330,  32.494
   307.4,0.058127,0.031606,0.532239,-0.000243,  32.501
   307.6,0.057705,0.031370,0.530240,-0.000204,  32.498
   307.8,0.057290,0.031127,0.527650,-0.000165,  32.494
   308.0,0.056892,0.030958,0.524724,-0.000152,  32.486
   308.2,0.056618,0.030828,0.521354,-0.000161,  32.478
   308.4,0.056410,0.030737,0.517628,-0.000135,  32.458
   308.6,0.056280,0.030654,0.513373,-0.000122,  32.446
   308.8,0.056137,0.030595,0.508703,-0.000170,  32.439
   309.0,0.056013,0.030566,0.503644,-0.000196,  32.434
   309.2,0.055934,0.030562,0.500859,-0.000239,  32.437
   309.4,0.055819,0.030507,0.498935,-0.000252,  32.438
   309.6,0.055692,0.030455,0.497869,-0.000239,  32.446
   309.8,0.055574,0.030397,0.496691,-0.000239,  32.456
   310.0,0.055397,0.030293,0.495844,-0.000226,  32.462
   310.2,0.055187,0.030160,0.495287,-0.000213,  32.467
   310.4,0.054952,0.030004,0.494624,-0.000200,  32.478
   310.6,0.054819,0.029915,0.494042,-0.000213,  32.489
   310.8,0.054714,0.029851,0.493582,-0.000252,  32.507
   311.0,0.054657,0.029816,0.492694,-0.000291,  32.525
   311.2,0.054508,0.029743,0.491669,-0.000357,  32.536
   311.4,0.054330,0.029659,0.490501,-0.000435,  32.548
   311.6,0.054141,0.029564,0.489898,-0.000526,  32.558
   311.8,0.053906,0.029417,0.489408,-0.000513,  32.575
   312.0,0.053641,0.029233,0.489117,-0.000448,  32.579
   312.2,0.053340,0.029008,0.487883,-0.000357,  32.584
   312.4,0.053018,0.028796,0.486311,-0.000291,  32.585
   312.6,0.052639,0.028567,0.484274,-0.000239,  32.588
   312.8,0.052229,0.028327,0.481570,-0.000200,  32.586
   313.0,0.051785,0.028135,0.478347,-0.000148,  32.581
   313.2,0.051470,0.027965,0.474604,-0.000122,  32.577
   313.4,0.051196,0.027819,0.470527,-0.000096,  32.561
   313.6,0.050982,0.027712,0.465936,-0.000083,  32.553
   313.8,0.050806,0.027642,0.460985,-0.000096,  32.527
   314.0,0.050668,0.027599,0.457727,-0.000148,  32.519
   314.2,0.050590,0.027547,0.455029,-0.000174,  32.526
   314.4,0.050483,0.027504,0.452895,-0.000187,  32.522
   314.6,0.050376,0.027466,0.451425,-0.000239,  32.524
   314.8,0.050291,0.027394,0.450583,-0.000252,  32.529
   315.0,0.050153,0.027311,0.450263,-0.000265,  32.531
   315.2,0.049986,0.027217,0.449545,-0.000239,  32.536
   315.4,0.049808,0.027096,0.448907,-0.000239,  32.539
   315.6,0.049651,0.026955,0.448313,-0.000261,  32.544
   315.8,0.049494,0.026804,0.447808,-0.000226,  32.559
   316.0,0.049347,0.026712,0.447333,-0.000226,  32.584
   316.2,0.049188,0.026630,0.446930,-0.000265,  32.591
   316.4,0.049018,0.026575,0.446551,-0.000330,  32.601
   316.6,0.048849,0.026458,0.445088,-0.000422,  32.610
   316.8,0.048580,0.026318,0.443220,-0.000435,  32.625
   317.0,0.048258,0.026156,0.440940,-0.000448,  32.629
   317.2,0.047877,0.026007,0.439849,-0.000448,  32.637
   317.4,0.047506,0.025850,0.439124,-0.000396,  32.644
   317.6,0.047107,0.025692,0.438728,-0.000343,  32.649
   317.8,0.046680,0.025521,0.437074,-0.000278,  32.649
   318.0,0.046316,0.025334,0.434914,-0.000226,  32.649
   318.2,0.045968,0.025139,0.432313,-0.000187,  32.643
   318.4,0.045633,0.024924,0.428816,-0.000161,  32.636
   318.6,0.045400,0.024785,0.424627,-0.000148,  32.627
   318.8,0.045220,0.024670,0.419761,-0.000122,  32.605
   319.0,0.045102,0.024583,0.415878,-0.000122,  32.591
   319.2,0.044981,0.024513,0.412116,-0.000148,  32.581
   319.4,0.044882,0.024466,0.408472,-0.000187,  32.575
   319.6,0.044807,0.024437,0.406174,-0.000252,  32.577
   319.8,0.044705,0.024390,0.404604,-0.000265,  32.576
   320.0,0.044603,0.024343,0.403731,-0.000278,  32.578
   320.2,0.044501,0.024305,0.402890,-0.000278,  32.581
   320.4,0.044374,0.024207,0.402428,-0.000278,  32.584
   320.6,0.044228,0.024084,0.402277,-0.000265,  32.587
   320.8,0.044086,0.023936,0.401751,-0.000252,  32.590
   321.0,0.043916,0.023846,0.401149,-0.000265,  32.600
   321.2,0.043795,0.023783,0.400535,-0.000291,  32.616
   321.4,0.043692,0.023746,0.399824,-0.000317,  32.636
   321.6,0.043606,0.023665,0.398992,-0.000370,  32.648
   321.8,0.043449,0.023575,0.398059,-0.000461,  32.660
   322.0,0.043270,0.023479,0.397365,-0.000552,  32.665
   322.2,0.043060,0.023333,0.396757,-0.000526,  32.671
   322.4,0.042767,0.023157,0.396157,-0.000487,  32.680
   322.6,0.042415,0.022951,0.394808,-0.000396,  32.687
   322.8,0.042008,0.022756,0.393132,-0.000343,  32.686
   323.0,0.041645,0.022553,0.391100,-0.000278,  32.696
   323.2,0.041276,0.022342,0.388325,-0.000239,  32.696
   323.4,0.040898,0.022161,0.385018,-0.000200,  32.689
   323.6,0.040612,0.021999,0.381156,-0.000161,  32.680
   323.8,0.040364,0.021855,0.377393,-0.000148,  32.670
   324.0,0.040155,0.021759,0.373389,-0.000148,  32.657
   324.2,0.039999,0.021692,0.369137,-0.000148,  32.633
   324.4,0.039889,0.021665,0.366116,-0.000174,  32.626
   324.6,0.039821,0.021627,0.363509,-0.000200,  32.622
   324.8,0.039735,0.021588,0.361410,-0.000261,  32.618
   325.0,0.039655,0.021568,0.359994,-0.000265,  32.623
   325.2,0.039588,0.021515,0.359193,-0.000291,  32.620
   325.4,0.039475,0.021446,0.358915,-0.000304,  32.623
   325.6,0.039345,0.021366,0.359225,-0.000304,  32.621
   325.8,0.039197,0.021289,0.358778,-0.000291,  32.626
   326.0,0.039059,0.021197,0.358367,-0.000278,  32.623
   326.2,0.038924,0.021101,0.358015,-0.000265,  32.637
   326.4,0.038779,0.021001,0.357568,-0.000265,  32.653
   326.6,0.038635,0.020928,0.357107,-0.000291,  32.666
   326.8,0.038495,0.020859,0.356594,-0.000357,  32.678
   327.0,0.038348,0.020801,0.355931,-0.000461,  32.694
   327.2,0.038118,0.020706,0.355153,-0.000487,  32.700
   327.4,0.037856,0.020590,0.354289,-0.000500,  32.710
   327.6,0.037552,0.020464,0.353353,-0.000487,  32.717
   327.8,0.037241,0.020311,0.352317,-0.000448,  32.725
   328.0,0.036899,0.020135,0.351181,-0.000396,  32.736
   328.2,0.036534,0.019940,0.349431,-0.000317,  32.742
   328.4,0.036221,0.019769,0.347372,-0.000265,  32.740
   328.6,0.035907,0.019596,0.344954,-0.000226,  32.735
   328.8,0.035613,0.019429,0.341686,-0.000187,  32.727
   329.0,0.035428,0.019310,0.337813,-0.000148,  32.720
   329.2,0.035290,0.019217,0.333392,-0.000122,  32.704
   329.4,0.035234,0.019155,0.329715,-0.000122,  32.687
   329.6,0.035219,0.019113,0.326057,-0.000135,  32.668
   329.8,0.035155,0.019093,0.322477,-0.000174,  32.652
   330.0,0.035101,0.019097,0.320631,-0.000265,  32.656
   330.2,0.035061,0.019077,0.319598,-0.000278,  32.651
   330.4,0.034995,0.019053,0.319417,-0.000265,  32.656
   330.6,0.034913,0.019026,0.318955,-0.000265,  32.659
   330.8,0.034829,0.018945,0.318714,-0.000252,  32.659
   331.0,0.034686,0.018834,0.318747,-0.000213,  32.662
   331.2,0.034504,0.018697,0.318473,-0.000187,  32.665
   331.4,0.034302,0.018608,0.318158,-0.000187,  32.667
   331.6,0.034187,0.018531,0.317811,-0.000200,  32.683
   331.8,0.034090,0.018462,0.317370,-0.000239,  32.704
   332.0,0.034039,0.018389,0.316863,-0.000291,  32.712
   332.2,0.033909,0.018311,0.316310,-0.000343,  32.723
   332.4,0.033751,0.018231,0.315725,-0.000435,  32.733
   332.6,0.033579,0.018123,0.315140,-0.000526,  32.743
   332.8,0.033344,0.017996,0.314536,-0.000548,  32.749
   333.0,0.033066,0.017848,0.313152,-0.000474,  32.753
   333.2,0.032759,0.017698,0.311385,-0.000422,  32.755
   333.4,0.032463,0.017539,0.309259,-0.000357,  32.758
   333.6,0.032153,0.017367,0.307494,-0.000317,  32.763
   333.8,0.031840,0.017214,0.305750,-0.000278,  32.751
   334.0,0.031593,0.017070,0.303966,-0.000226,  32.749
   334.2,0.031370,0.016943,0.302202,-0.000187,  32.747
   334.4,0.031182,0.016854,0.299413,-0.000161,  32.733
   334.6,0.031044,0.016803,0.296210,-0.000161,  32.715
   334.8,0.030938,0.016770,0.292607,-0.000174,  32.694
   335.0,0.030891,0.016772,0.290111,-0.000200,  32.695
   335.2,0.030816,0.016743,0.287960,-0.000226,  32.692
   335.4,0.030743,0.016722,0.286156,-0.000265,  32.691
   335.6,0.030693,0.016700,0.285033,-0.000304,  32.696
   335.8,0.030585,0.016647,0.284376,-0.000304,  32.700
   336.0,0.030446,0.016581,0.284239,-0.000304,  32.701
   336.2,0.030297,0.016502,0.283726,-0.000304,  32.703
   336.4,0.030162,0.016396,0.283259,-0.000278,  32.703
   336.6,0.030017,0.016273,0.282849,-0.000278,  32.708
   336.8,0.029883,0.016131,0.282459,-0.000278,  32.721
   337.0,0.029761,0.016056,0.282105,-0.000317,  32.737
   337.2,0.029634,0.015995,0.281794,-0.000370,  32.748
   337.4,0.029517,0.015960,0.281131,-0.000474,  32.754
   337.6,0.029379,0.015892,0.280254,-0.000500,  32.763
   337.8,0.029238,0.015819,0.279217,-0.000500,  32.771
   338.0,0.029098,0.015738,0.278355,-0.000500,  32.782
   338.2,0.028952,0.015623,0.277458,-0.000461,  32.784
   338.4,0.028734,0.015495,0.276586,-0.000396,  32.789
   338.6,0.028480,0.015352,0.275220,-0.000330,  32.787
   338.8,0.028191,0.015218,0.273569,-0.000278,  32.792
   339.0,0.027937,0.015080,0.271679,-0.000239,  32.794
   339.2,0.027687,0.014943,0.268824,-0.000200,  32.789
   339.4,0.027446,0.014847,0.265399,-0.000161,  32.783
   339.6,0.027286,0.014763,0.261344,-0.000148,  32.773
   339.8,0.027157,0.014695,0.258656,-0.000135,  32.759
   340.0,0.027080,0.014645,0.256340,-0.000113,  32.742
   340.2,0.027005,0.014619,0.254382,-0.000165,  32.735
   340.4,0.026939,0.014610,0.252956,-0.000243,  32.733
   340.6,0.026900,0.014581,0.251968,-0.000235,  32.730
   340.8,0.026838,0.014560,0.251430,-0.000248,  32.728
   341.0,0.026766,0.014538,0.250991,-0.000283,  32.727
   341.2,0.026704,0.014460,0.250781,-0.000283,  32.731
   341.4,0.026582,0.014370,0.250816,-0.000283,  32.731
   341.6,0.026431,0.014258,0.250629,-0.000291,  32.734
   341.8,0.026259,0.014179,0.250472,-0.000243,  32.741
   342.0,0.026164,0.014113,0.250292,-0.000278,  32.742
   342.2,0.026093,0.014059,0.250011,-0.000317,  32.755
   342.4,0.026045,0.014004,0.249707,-0.000309,  32.766
   342.6,0.025944,0.013947,0.249332,-0.000361,  32.775
   342.8,0.025823,0.013895,0.248905,-0.000452,  32.791
   343.0,0.025680,0.013812,0.248381,-0.000543,  32.797
   343.2,0.025494,0.013711,0.247802,-0.000530,  32.796
   343.4,0.025277,0.013595,0.247172,-0.000504,  32.805
   343.6,0.025019,0.013498,0.246145,-0.000426,  32.806
   343.8,0.024788,0.013411,0.244893,-0.000374,  32.812
   344.0,0.024552,0.013314,0.243398,-0.000322,  32.814
   344.2,0.024309,0.013233,0.241533,-0.000256,  32.813
   344.4,0.024111,0.013124,0.239347,-0.000217,  32.806
   344.6,0.023928,0.013006,0.236840,-0.000178,  32.800
   344.8,0.023763,0.012880,0.234385,-0.000139,  32.786
   345.0,0.023653,0.012812,0.231784,-0.000126,  32.777
   345.2,0.023576,0.012766,0.229052,-0.000139,  32.763
   345.4,0.023537,0.012749,0.227088,-0.000165,  32.746
   345.6,0.023481,0.012725,0.225415,-0.000178,  32.738
   345.8,0.023425,0.012707,0.224034,-0.000230,  32.741
   346.0,0.023393,0.012698,0.223094,-0.000283,  32.739
   346.2,0.023307,0.012659,0.222520,-0.000283,  32.737
   346.4,0.023194,0.012613,0.222295,-0.000296,  32.738
   346.6,0.023071,0.012549,0.221989,-0.000283,  32.740
   346.8,0.022968,0.012455,0.221819,-0.000270,  32.738
   347.0,0.022865,0.012344,0.221770,-0.000270,  32.752
   347.2,0.022765,0.012213,0.221521,-0.000256,  32.755
   347.4,0.022665,0.012145,0.221215,-0.000296,  32.765
   347.6,0.022582,0.012101,0.220873,-0.000348,  32.780
   347.8,0.022497,0.012090,0.220389,-0.000439,  32.793
   348.0,0.022420,0.012045,0.219828,-0.000465,  32.799
   348.2,0.022306,0.011994,0.219111,-0.000478,  32.812
   348.4,0.022173,0.011948,0.218409,-0.000491,  32.813
   348.6,0.022033,0.011869,0.217672,-0.000452,  32.816
   348.8,0.021862,0.011782,0.216844,-0.000400,  32.819
   349.0,0.021664,0.011673,0.215623,-0.000309,  32.823
   349.2,0.021450,0.011570,0.214202,-0.000243,  32.825
   349.4,0.021246,0.011468,0.212541,-0.000204,  32.827
   349.6,0.021047,0.011353,0.210568,-0.000178,  32.818
   349.8,0.020839,0.011266,0.208347,-0.000139,  32.812
   350.0,0.020697,0.011197,0.205895,-0.000113,  32.803
   350.2,0.020604,0.011134,0.203732,-0.000100,  32.793
   350.4,0.020537,0.011097,0.201606,-0.000100,  32.781
   350.6,0.020468,0.011075,0.199497,-0.000126,  32.771
   350.8,0.020428,0.011075,0.198020,-0.000200,  32.765
   351.0,0.020402,0.011057,0.196852,-0.000230,  32.759
   351.2,0.020348,0.011037,0.195949,-0.000278,  32.754
   351.4,0.020302,0.011024,0.195424,-0.000291,  32.756
   351.6,0.020247,0.010959,0.195203,-0.000270,  32.759
   351.8,0.020131,0.010867,0.195290,-0.000256,  32.756
   352.0,0.019998,0.010758,0.195707,-0.000243,  32.753
   352.2,0.019825,0.010688,0.195613,-0.000230,  32.759
   352.4,0.019740,0.010631,0.195445,-0.000230,  32.764
   352.6,0.019679,0.010587,0.195270,-0.000243,  32.774
   352.8,0.019647,0.010544,0.195049,-0.000296,  32.800
   353.0,0.019571,0.010509,0.194754,-0.000348,  32.804
   353.2,0.019474,0.010483,0.194412,-0.000426,  32.813
   353.4,0.019381,0.010457,0.194070,-0.000530,  32.820
   353.6,0.019256,0.010394,0.193702,-0.000530,  32.827
   353.8,0.019100,0.010329,0.193293,-0.000491,  32.837
   354.0,0.018940,0.010252,0.192391,-0.000439,  32.841
   354.2,0.018768,0.010169,0.191238,-0.000387,  32.844
   354.4,0.018577,0.010073,0.189843,-0.000335,  32.846
   354.6,0.018388,0.009980,0.188399,-0.000296,  32.846
   354.8,0.018225,0.009882,0.186788,-0.000243,  32.842
   355.0,0.018061,0.009782,0.185066,-0.000217,  32.836
   355.2,0.017919,0.009682,0.183213,-0.000191,  32.826
   355.4,0.017829,0.009623,0.181211,-0.000165,  32.807
   355.6,0.017773,0.009593,0.179095,-0.000178,  32.783
   355.8,0.017751,0.009581,0.177512,-0.000191,  32.769
   356.0,0.017713,0.009559,0.176121,-0.000204,  32.766
   356.2,0.017684,0.009555,0.174920,-0.000243,  32.756
   356.4,0.017654,0.009553,0.174190,-0.000283,  32.750
   356.6,0.017642,0.009522,0.173749,-0.000283,  32.754
   356.8,0.017576,0.009481,0.173621,-0.000296,  32.759
   357.0,0.017494,0.009434,0.173379,-0.000283,  32.755
   357.2,0.017387,0.009349,0.173206,-0.000270,  32.754
   357.4,0.017274,0.009245,0.173142,-0.000270,  32.757
   357.6,0.017139,0.009120,0.172950,-0.000270,  32.764
   357.8,0.016989,0.009066,0.172702,-0.000296,  32.779
   358.0,0.016904,0.009031,0.172453,-0.000348,  32.800
   358.2,0.016848,0.009027,0.172095,-0.000439,  32.808
   358.4,0.016820,0.008999,0.171643,-0.000465,  32.821
   358.6,0.016750,0.008969,0.171108,-0.000491,  32.826
   358.8,0.016669,0.008943,0.170567,-0.000517,  32.834
   359.0,0.016579,0.008896,0.170010,-0.000478,  32.848
   359.2,0.016469,0.008839,0.169365,-0.000426,  32.851
   359.4,0.016341,0.008768,0.168485,-0.000335,  32.853
   359.6,0.016193,0.008701,0.167412,-0.000296,  32.858
   359.8,0.016054,0.008630,0.166203,-0.000256,  32.850
   360.0,0.015903,0.008552,0.164753,-0.000252,  32.851
   360.2,0.015746,0.008487,0.163060,-0.000204,  32.844
   360.4,0.015648,0.008422,0.161168,-0.000213,  32.831
   360.6,0.015557,0.008365,0.159792,-0.000174,  32.820
   360.8,0.015499,0.008337,0.158572,-0.000113,  32.794
   361.0,0.015453,0.008315,0.157474,-0.000139,  32.782
   361.2,0.015414,0.008322,0.156545,-0.000178,  32.777
   361.4,0.015403,0.008312,0.155771,-0.000256,  32.774
   361.6,0.015369,0.008300,0.155134,-0.000283,  32.771
   361.8,0.015324,0.008292,0.154633,-0.000296,  32.769
   362.0,0.015288,0.008256,0.154314,-0.000296,  32.772
   362.2,0.015192,0.008202,0.154131,-0.000283,  32.774
   362.4,0.015055,0.008132,0.154101,-0.000283,  32.777
   362.6,0.014900,0.008050,0.153936,-0.000283,  32.779
   362.8,0.014822,0.007996,0.153796,-0.000283,  32.787
   363.0,0.014760,0.007942,0.153669,-0.000296,  32.797
   363.2,0.014735,0.007892,0.153413,-0.000322,  32.811
   363.4,0.014674,0.007860,0.153120,-0.000374,  32.817
   363.6,0.014610,0.007829,0.152798,-0.000439,  32.834
   363.8,0.014548,0.007812,0.152432,-0.000556,  32.846
   364.0,0.014450,0.007773,0.152049,-0.000556,  32.858
   364.2,0.014334,0.007716,0.151648,-0.000504,  32.860
   364.4,0.014201,0.007663,0.150853,-0.000439,  32.866
   364.6,0.014077,0.007607,0.149842,-0.000387,  32.868
   364.8,0.013950,0.007541,0.148598,-0.000322,  32.869
   365.0,0.013811,0.007477,0.147362,-0.000270,  32.865
   365.2,0.013702,0.007401,0.146015,-0.000217,  32.865
   365.4,0.013597,0.007315,0.144522,-0.000191,  32.859
   365.6,0.013507,0.007224,0.142480,-0.000178,  32.848
   365.8,0.013427,0.007181,0.140100,-0.000165,  32.831
   366.0,0.013366,0.007154,0.137407,-0.000165,  32.812
   366.2,0.013320,0.007147,0.136228,-0.000204,  32.791
   366.4,0.013291,0.007134,0.135638,-0.000230,  32.789
   366.6,0.013265,0.007135,0.135614,-0.000256,  32.786
   366.8,0.013241,0.007142,0.135350,-0.000322,  32.780
   367.0,0.013233,0.007121,0.135306,-0.000322,  32.785
   367.2,0.013182,0.007088,0.135391,-0.000322,  32.785
   367.4,0.013106,0.007049,0.135169,-0.000309,  32.782
   367.6,0.013020,0.006981,0.134883,-0.000296,  32.784
   367.8,0.012914,0.006884,0.134512,-0.000296,  32.787
   368.0,0.012786,0.006761,0.134509,-0.000283,  32.792
   368.2,0.012649,0.006707,0.134644,-0.000309,  32.810
   368.4,0.012583,0.006680,0.134921,-0.000335,  32.817
   368.6,0.012536,0.006673,0.134743,-0.000422,  32.830
   368.8,0.012528,0.006649,0.134410,-0.000452,  32.843
   369.0,0.012476,0.006636,0.133916,-0.000526,  32.859
   369.2,0.012419,0.006629,0.133584,-0.000552,  32.865
   369.4,0.012353,0.006596,0.133227,-0.000543,  32.865
   369.6,0.012271,0.006560,0.132896,-0.000517,  32.873
   369.8,0.012184,0.006510,0.132540,-0.000465,  32.879
   370.0,0.012086,0.006458,0.131784,-0.000374,  32.881
   370.2,0.011974,0.006404,0.130845,-0.000322,  32.879
   370.4,0.011852,0.006344,0.129762,-0.000270,  32.877
   370.6,0.011721,0.006298,0.128533,-0.000230,  32.871
   370.8,0.011631,0.006252,0.127101,-0.000191,  32.858
   371.0,0.011565,0.006209,0.125519,-0.000152,  32.851
   371.2,0.011516,0.006176,0.124199,-0.000139,  32.830
   371.4,0.011478,0.006159,0.122925,-0.000165,  32.800
   371.6,0.011461,0.006155,0.121671,-0.000217,  32.791
   371.8,0.011465,0.006160,0.120957,-0.000283,  32.784
   372.0,0.011445,0.006156,0.120519,-0.000296,  32.789
   372.2,0.011418,0.006154,0.120360,-0.000322,  32.783
   372.4,0.011395,0.006157,0.120166,-0.000335,  32.783
   372.6,0.011314,0.006109,0.120115,-0.000322,  32.781
   372.8,0.011196,0.006039,0.120200,-0.000322,  32.785
   373.0,0.011059,0.005944,0.120211,-0.000309,  32.783
   373.2,0.010996,0.005881,0.120238,-0.000309,  32.793
   373.4,0.010941,0.005827,0.120292,-0.000322,  32.803
   373.6,0.010915,0.005771,0.120245,-0.000335,  32.821
   373.8,0.010871,0.005742,0.120130,-0.000387,  32.838
   374.0,0.010845,0.005734,0.119981,-0.000465,  32.853
   374.2,0.010819,0.005738,0.119676,-0.000569,  32.868
   374.4,0.010809,0.005717,0.119290,-0.000569,  32.871
   374.6,0.010749,0.005689,0.118805,-0.000517,  32.883
   374.8,0.010667,0.005667,0.118201,-0.000439,  32.895
   375.0,0.010578,0.005635,0.117473,-0.000422,  32.903
   375.2,0.010495,0.005598,0.116638,-0.000370,  32.903
   375.4,0.010404,0.005564,0.115630,-0.000317,  32.904
   375.6,0.010313,0.005505,0.114470,-0.000300,  32.902
   375.8,0.010219,0.005443,0.113183,-0.000274,  32.892
   376.0,0.010115,0.005367,0.111984,-0.000200,  32.882
   376.2,0.010009,0.005339,0.110728,-0.000174,  32.871
   376.4,0.009969,0.005331,0.109436,-0.000187,  32.842
   376.6,0.009951,0.005341,0.108494,-0.000200,  32.820
   376.8,0.009972,0.005352,0.107676,-0.000213,  32.805
   377.0,0.009974,0.005373,0.106998,-0.000239,  32.798
   377.2,0.009979,0.005409,0.106663,-0.000265,  32.798
   377.4,0.009997,0.005403,0.106590,-0.000283,  32.794
   377.6,0.009963,0.005381,0.106738,-0.000304,  32.796
   377.8,0.009899,0.005347,0.106758,-0.000291,  32.793
   378.0,0.009826,0.005274,0.106843,-0.000278,  32.795
   378.2,0.009724,0.005162,0.106978,-0.000252,  32.796
   378.4,0.009590,0.005029,0.107178,-0.000239,  32.799
   378.6,0.009448,0.004976,0.107195,-0.000191,  32.811
   378.8,0.009382,0.004942,0.107159,-0.000182,  32.826
   379.0,0.009352,0.004935,0.107080,-0.000248,  32.837
   379.2,0.009358,0.004923,0.106906,-0.000361,  32.863
   379.4,0.009326,0.004916,0.106640,-0.000461,  32.868
   379.6,0.009294,0.004916,0.106285,-0.000526,  32.878
   379.8,0.009264,0.004923,0.105973,-0.000604,  32.887
   380.0,0.009212,0.004908,0.105652,-0.000626,  32.897
   380.2,0.009148,0.004881,0.105281,-0.000574,  32.906
   380.4,0.009072,0.004855,0.104669,-0.000435,  32.906
   380.6,0.008989,0.004820,0.103910,-0.000383,  32.904
   380.8,0.008891,0.004786,0.103000,-0.000343,  32.904
   381.0,0.008797,0.004743,0.102049,-0.000304,  32.898
   381.2,0.008732,0.004698,0.100993,-0.000252,  32.890
   381.4,0.008669,0.004659,0.099836,-0.000226,  32.876
   381.6,0.008625,0.004615,0.098811,-0.000200,  32.849
   381.8,0.008602,0.004601,0.097789,-0.000200,  32.829
   382.0,0.008590,0.004594,0.096785,-0.000252,  32.811
   382.2,0.008599,0.004601,0.096175,-0.000317,  32.811
   382.4,0.008587,0.004603,0.095764,-0.000330,  32.805
   382.6,0.008564,0.004604,0.095544,-0.000357,  32.804
   382.8,0.008547,0.004610,0.095416,-0.000370,  32.805
   383.0,0.008498,0.004567,0.095384,-0.000357,  32.806
   383.2,0.008426,0.004497,0.095496,-0.000357,  32.803
   383.4,0.008347,0.004418,0.095496,-0.000343,  32.808
   383.6,0.008247,0.004360,0.095477,-0.000343,  32.812
   383.8,0.008196,0.004308,0.095465,-0.000357,  32.825
   384.0,0.008153,0.004259,0.095401,-0.000370,  32.835
   384.2,0.008119,0.004240,0.095315,-0.000422,  32.858
   384.4,0.008093,0.004236,0.095203,-0.000500,  32.871
   384.6,0.008072,0.004248,0.094969,-0.000604,  32.881
   384.8,0.008073,0.004243,0.094640,-0.000604,  32.887
   385.0,0.008042,0.004237,0.094261,-0.000565,  32.904
   385.2,0.007996,0.004230,0.093560,-0.000500,  32.910
   385.4,0.007957,0.004215,0.092667,-0.000448,  32.910
   385.6,0.007905,0.004193,0.091606,-0.000383,  32.915
   385.8,0.007839,0.004164,0.090870,-0.000330,  32.915
   386.0,0.007780,0.004122,0.090219,-0.000278,  32.913
   386.2,0.007699,0.004068,0.089666,-0.000252,  32.912
   386.4,0.007611,0.004005,0.088841,-0.000226,  32.904
   386.6,0.007515,0.003976,0.087943,-0.000213,  32.894
   386.8,0.007472,0.003959,0.086959,-0.000200,  32.876
   387.0,0.007443,0.003961,0.086321,-0.000200,  32.859
   387.2,0.007444,0.003959,0.085817,-0.000200,  32.843
   387.4,0.007439,0.003965,0.085455,-0.000248,  32.837
   387.6,0.007429,0.003982,0.085247,-0.000265,  32.834
   387.8,0.007444,0.003971,0.085180,-0.000317,  32.834
   388.0,0.007422,0.003959,0.085229,-0.000317,  32.834
   388.2,0.007378,0.003949,0.085426,-0.000330,  32.839
   388.4,0.007334,0.003886,0.084796,-0.000317,  32.837
   388.6,0.007251,0.003796,0.083908,-0.000304,  32.836
   388.8,0.007134,0.003694,0.082781,-0.000304,  32.840
   389.0,0.007004,0.003642,0.082819,-0.000291,  32.847
   389.2,0.006956,0.003617,0.083283,-0.000317,  32.859
   389.4,0.006929,0.003603,0.084213,-0.000370,  32.871
   389.6,0.006947,0.003614,0.084385,-0.000435,  32.884
   389.8,0.006929,0.003613,0.084381,-0.000487,  32.900
   390.0,0.006920,0.003622,0.084225,-0.000565,  32.908
   390.2,0.006915,0.003639,0.084176,-0.000643,  32.917
   390.4,0.006882,0.003634,0.084127,-0.000617,  32.917
   390.6,0.006855,0.003630,0.084031,-0.000565,  32.926
   390.8,0.006813,0.003616,0.083639,-0.000461,  32.930
   391.0,0.006749,0.003592,0.083111,-0.000396,  32.929
   391.2,0.006690,0.003571,0.082405,-0.000343,  32.929
   391.4,0.006611,0.003544,0.081686,-0.000291,  32.926
   391.6,0.006550,0.003505,0.080882,-0.000252,  32.919
   391.8,0.006512,0.003467,0.079971,-0.000226,  32.903
   392.0,0.006469,0.003422,0.079113,-0.000200,  32.894
   392.2,0.006446,0.003406,0.078232,-0.000200,  32.874
   392.4,0.006438,0.003414,0.077328,-0.000239,  32.854
   392.6,0.006435,0.003429,0.076859,-0.000304,  32.845
   392.8,0.006456,0.003434,0.076560,-0.000317,  32.837
   393.0,0.006447,0.003441,0.076484,-0.000330,  32.840
   393.2,0.006439,0.003448,0.076416,-0.000357,  32.835
   393.4,0.006430,0.003414,0.076455,-0.000343,  32.834
   393.6,0.006365,0.003357,0.076586,-0.000343,  32.837
   393.8,0.006270,0.003283,0.076656,-0.000343,  32.837
   394.0,0.006158,0.003225,0.076740,-0.000343,  32.837
   394.2,0.006099,0.003158,0.076823,-0.000343,  32.843
   394.4,0.006049,0.003097,0.076840,-0.000357,  32.860
   394.6,0.006025,0.003080,0.076834,-0.000409,  32.874
   394.8,0.006011,0.003084,0.076796,-0.000474,  32.885
   395.0,0.006007,0.003117,0.076676,-0.000591,  32.906
   395.2,0.006025,0.003124,0.076518,-0.000591,  32.913
   395.4,0.006013,0.003125,0.076305,-0.000552,  32.915
   395.6,0.005993,0.003136,0.075852,-0.000500,  32.925
   395.8,0.005974,0.003134,0.075267,-0.000461,  32.929
   396.0,0.005943,0.003126,0.074528,-0.000409,  32.931
   396.2,0.005899,0.003112,0.073965,-0.000370,  32.934
   396.4,0.005860,0.003082,0.073434,-0.000330,  32.932
   396.6,0.005798,0.003039,0.072905,-0.000326,  32.929
   396.8,0.005715,0.002980,0.072351,-0.000252,  32.915
   397.0,0.005637,0.002958,0.071800,-0.000213,  32.910
   397.2,0.005596,0.002943,0.071254,-0.000187,  32.900
   397.4,0.005585,0.002945,0.070709,-0.000187,  32.876
   397.6,0.005590,0.002943,0.070141,-0.000200,  32.853
   397.8,0.005583,0.002944,0.069557,-0.000213,  32.844
   398.0,0.005593,0.002962,0.068980,-0.000265,  32.842
   398.2,0.005599,0.002977,0.068769,-0.000330,  32.839
   398.4,0.005569,0.002968,0.068733,-0.000330,  32.836
   398.6,0.005536,0.002955,0.068913,-0.000343,  32.837
   398.8,0.005485,0.002943,0.068989,-0.000343,  32.833
   399.0,0.005406,0.002878,0.069081,-0.000330,  32.824
   399.2,0.005304,0.002800,0.069232,-0.000330,  32.826
   399.4,0.005184,0.002689,0.069307,-0.000330,  32.832
   399.6,0.005144,0.002643,0.069359,-0.000357,  32.843
   399.8,0.005132,0.002626,0.069403,-0.000396,  32.865
   400.0,0.005158,0.002626,0.069381,-0.000474,  32.876
   400.2,0.005158,0.002623,0.069322,-0.000526,  32.889
   400.4,0.005160,0.002643,0.069212,-0.000578,  32.908
   400.6,0.005175,0.002672,0.069001,-0.000643,  32.916
   400.8,0.005170,0.002678,0.068743,-0.000630,  32.923
   401.0,0.005149,0.002682,0.068425,-0.000578,  32.932
   401.2,0.005133,0.002687,0.068127,-0.000500,  32.935
   401.4,0.005107,0.002676,0.067808,-0.000448,  32.936
   401.6,0.005076,0.002663,0.067476,-0.000396,  32.940
   401.8,0.005039,0.002644,0.066935,-0.000370,  32.926
   402.0,0.004994,0.002613,0.066252,-0.000330,  32.925
   402.2,0.004955,0.002582,0.065448,-0.000278,  32.913
   402.4,0.004912,0.002537,0.064744,-0.000239,  32.898
   402.6,0.004867,0.002524,0.064020,-0.000239,  32.875
   402.8,0.004856,0.002533,0.063259,-0.000265,  32.841
   403.0,0.004849,0.002550,0.062828,-0.000330,  32.837
   403.2,0.004870,0.002556,0.062544,-0.000343,  32.833
   403.4,0.004873,0.002566,0.062403,-0.000357,  32.823
   403.6,0.004863,0.002578,0.062351,-0.000383,  32.823
   403.8,0.004867,0.002548,0.062426,-0.000383,  32.821
   404.0,0.004813,0.002499,0.062604,-0.000370,  32.824
   404.2,0.004722,0.002431,0.062655,-0.000370,  32.819
   404.4,0.004615,0.002369,0.062675,-0.000343,  32.818
   404.6,0.004565,0.002312,0.062694,-0.000365,  32.830
   404.8,0.004515,0.002250,0.062708,-0.000343,  32.848
   405.0,0.004494,0.002235,0.062731,-0.000370,  32.864
   405.2,0.004494,0.002248,0.062725,-0.000422,  32.879
   405.4,0.004504,0.002282,0.062386,-0.000500,  32.894
   405.6,0.004545,0.002297,0.061859,-0.000604,  32.911
   405.8,0.004553,0.002321,0.061189,-0.000604,  32.920
   406.0,0.004549,0.002344,0.060311,-0.000578,  32.925
   406.2,0.004556,0.002358,0.060055,-0.000513,  32.932
   406.4,0.004548,0.002367,0.059943,-0.000461,  32.935
   406.6,0.004527,0.002365,0.059961,-0.000409,  32.944
   406.8,0.004514,0.002371,0.059744,-0.000343,  32.938
   407.0,0.004471,0.002345,0.059466,-0.000291,  32.936
   407.2,0.004402,0.002313,0.059107,-0.000265,  32.927
   407.4,0.004330,0.002269,0.058659,-0.000226,  32.917
   407.6,0.004305,0.002250,0.058130,-0.000200,  32.902
   407.8,0.004287,0.002241,0.057497,-0.000200,  32.870
   408.0,0.004293,0.002237,0.057154,-0.000213,  32.856
   408.2,0.004296,0.002239,0.056886,-0.000226,  32.843
   408.4,0.004298,0.002252,0.056706,-0.000265,  32.843
   408.6,0.004316,0.002272,0.056620,-0.000330,  32.835
   408.8,0.004296,0.002268,0.056620,-0.000330,  32.832
   409.0,0.004258,0.002261,0.056699,-0.000343,  32.830
   409.2,0.004220,0.002248,0.056758,-0.000343,  32.835
   409.4,0.004141,0.002188,0.056867,-0.000330,  32.836
   409.6,0.004033,0.002106,0.057006,-0.000330,  32.842
   409.8,0.003912,0.001998,0.057139,-0.000330,  32.850
   410.0,0.003870,0.001959,0.057287,-0.000343,  32.858
   410.2,0.003852,0.001943,0.057465,-0.000396,  32.873
   410.4,0.003879,0.001960,0.057420,-0.000461,  32.892
   410.6,0.003920,0.001972,0.057302,-0.000500,  32.907
   410.8,0.003927,0.001995,0.057079,-0.000552,  32.921
   411.0,0.003954,0.002031,0.056889,-0.000617,  32.931
   411.2,0.003976,0.002048,0.056646,-0.000591,  32.936
   411.4,0.003975,0.002062,0.056383,-0.000526,  32.938
   411.6,0.003979,0.002065,0.056091,-0.000435,  32.945
   411.8,0.003968,0.002060,0.055735,-0.000383,  32.948
   412.0,0.003945,0.002057,0.055356,-0.000343,  32.951
   412.2,0.003908,0.002042,0.054898,-0.000291,  32.954
   412.4,0.003862,0.002010,0.054397,-0.000252,  32.949
   412.6,0.003815,0.001976,0.053851,-0.000226,  32.929
   412.8,0.003776,0.001936,0.053342,-0.000213,  32.914
   413.0,0.003731,0.001924,0.052834,-0.000213,  32.904
   413.2,0.003713,0.001929,0.052339,-0.000213,  32.883
   413.4,0.003720,0.001949,0.051813,-0.000252,  32.860
   413.6,0.003736,0.001960,0.051264,-0.000304,  32.854
   413.8,0.003742,0.001968,0.050692,-0.000352,  32.854
   414.0,0.003745,0.001986,0.050554,-0.000330,  32.855
   414.2,0.003757,0.001962,0.050605,-0.000357,  32.850
   414.4,0.003707,0.001913,0.050860,-0.000343,  32.856
   414.6,0.003624,0.001849,0.051306,-0.000343,  32.855
   414.8,0.003526,0.001804,0.051540,-0.000343,  32.859
   415.0,0.003463,0.001753,0.051817,-0.000343,  32.867
   415.2,0.003421,0.001708,0.052110,-0.000343,  32.876
   415.4,0.003390,0.001661,0.052220,-0.000357,  32.894
   415.6,0.003389,0.001658,0.052270,-0.000409,  32.912
   415.8,0.003418,0.001675,0.052231,-0.000474,  32.922
   416.0,0.003463,0.001711,0.052180,-0.000591,  32.932
   416.2,0.003473,0.001728,0.052066,-0.000591,  32.943
   416.4,0.003488,0.001749,0.051907,-0.000565,  32.949
   416.6,0.003494,0.001776,0.051654,-0.000513,  32.952
   416.8,0.003484,0.001790,0.051315,-0.000461,  32.966
   417.0,0.003483,0.001803,0.050888,-0.000396,  32.967
   417.2,0.003469,0.001810,0.050490,-0.000330,  32.969
   417.4,0.003425,0.001792,0.050041,-0.000278,  32.968
   417.6,0.003369,0.001762,0.049535,-0.000239,  32.964
   417.8,0.003298,0.001715,0.049068,-0.000213,  32.954
   418.0,0.003269,0.001696,0.048593,-0.000187,  32.944
   418.2,0.003261,0.001686,0.048077,-0.000187,  32.921
   418.4,0.003270,0.001686,0.047689,-0.000200,  32.906
   418.6,0.003270,0.001690,0.047359,-0.000178,  32.894
   418.8,0.003276,0.001698,0.047072,-0.000230,  32.885
   419.0,0.003291,0.001724,0.046957,-0.000296,  32.882
   419.2,0.003305,0.001724,0.046978,-0.000296,  32.880
   419.4,0.003284,0.001716,0.047093,-0.000309,  32.877
   419.6,0.003259,0.001706,0.047216,-0.000343,  32.882
   419.8,0.003222,0.001653,0.047410,-0.000330,  32.882
   420.0,0.003142,0.001571,0.047662,-0.000343,  32.883
   420.2,0.003051,0.001471,0.047785,-0.000309,  32.884
   420.4,0.002936,0.001432,0.047899,-0.000300,  32.899
   420.6,0.002905,0.001417,0.047976,-0.000339,  32.917
   420.8,0.002918,0.001423,0.047984,-0.000439,  32.930
   421.0,0.002961,0.001436,0.047963,-0.000491,  32.938
   421.2,0.002984,0.001461,0.047892,-0.000543,  32.948
   421.4,0.003008,0.001507,0.047727,-0.000608,  32.957
   421.6,0.003044,0.001526,0.047488,-0.000595,  32.975
   421.8,0.003061,0.001547,0.047179,-0.000582,  32.980
   422.0,0.003066,0.001566,0.046907,-0.000539,  32.986
   422.2,0.003075,0.001573,0.046630,-0.000461,  32.992
   422.4,0.003064,0.001573,0.046324,-0.000444,  32.990
   422.6,0.003032,0.001565,0.046011,-0.000357,  32.986
   422.8,0.002997,0.001546,0.045675,-0.000304,  32.979
   423.0,0.002968,0.001524,0.045304,-0.000252,  32.976
   423.2,0.002936,0.001492,0.044925,-0.000213,  32.967
   423.4,0.002918,0.001498,0.044440,-0.000187,  32.952
   423.6,0.002923,0.001517,0.043912,-0.000187,  32.933
   423.8,0.002939,0.001556,0.043320,-0.000226,  32.916
   424.0,0.002988,0.001577,0.043056,-0.000291,  32.912
   424.2,0.003008,0.001601,0.042957,-0.000304,  32.907
   424.4,0.003015,0.001622,0.042986,-0.000317,  32.902
   424.6,0.003030,0.001643,0.043000,-0.000317,  32.901
   424.8,0.002982,0.001613,0.043069,-0.000291,  32.900
   425.0,0.002897,0.001569,0.043173,-0.000278,  32.901
   425.2,0.002788,0.001503,0.043359,-0.000252,  32.902
   425.4,0.002715,0.001424,0.043622,-0.000239,  32.899
   425.6,0.002642,0.001332,0.043951,-0.000239,  32.912
   425.8,0.002576,0.001227,0.044152,-0.000265,  32.925
   426.0,0.002567,0.001202,0.044317,-0.000330,  32.934
   426.2,0.002586,0.001210,0.044468,-0.000409,  32.945
   426.4,0.002636,0.001256,0.044418,-0.000526,  32.953
   426.6,0.002655,0.001273,0.044233,-0.000552,  32.969
   426.8,0.002675,0.001298,0.043940,-0.000552,  32.974
   427.0,0.002697,0.001334,0.043656,-0.000513,  32.980
   427.2,0.002708,0.001350,0.043315,-0.000474,  32.985
   427.4,0.002717,0.001370,0.042930,-0.000409,  32.987
   427.6,0.002714,0.001385,0.042590,-0.000357,  32.992
   427.8,0.002715,0.001373,0.042265,-0.000317,  32.987
   428.0,0.002681,0.001347,0.041939,-0.000265,  32.986
   428.2,0.002634,0.001309,0.041514,-0.000239,  32.977
   428.4,0.002566,0.001292,0.041054,-0.000213,  32.968
   428.6,0.002546,0.001279,0.040531,-0.000200,  32.954
   428.8,0.002534,0.001280,0.040036,-0.000200,  32.929
   429.0,0.002544,0.001283,0.039540,-0.000213,  32.910
   429.2,0.002549,0.001300,0.039017,-0.000265,  32.904
   429.4,0.002557,0.001322,0.038954,-0.000330,  32.903
   429.6,0.002580,0.001326,0.039117,-0.000343,  32.899
   429.8,0.002572,0.001324,0.039500,-0.000343,  32.897
   430.0,0.002545,0.001318,0.039656,-0.000357,  32.896
   430.2,0.002518,0.001267,0.039803,-0.000343,  32.894
   430.4,0.002441,0.001186,0.039944,-0.000330,  32.893
   430.6,0.002346,0.001084,0.039835,-0.000330,  32.897
   430.8,0.002219,0.001048,0.039585,-0.000343,  32.904
   431.0,0.002194,0.001031,0.039193,-0.000370,  32.911
   431.2,0.002202,0.001038,0.039257,-0.000409,  32.929
   431.4,0.002251,0.001055,0.039485,-0.000448,  32.943
   431.6,0.002282,0.001087,0.039856,-0.000535,  32.951
   431.8,0.002315,0.001143,0.039900,-0.000565,  32.971
   432.0,0.002369,0.001168,0.039887,-0.000643,  32.978
   432.2,0.002395,0.001188,0.039739,-0.000630,  32.981
   432.4,0.002405,0.001207,0.039527,-0.000565,  32.987
   432.6,0.002417,0.001217,0.039281,-0.000474,  32.990
   432.8,0.002411,0.001222,0.038978,-0.000409,  32.995
   433.0,0.002391,0.001224,0.038633,-0.000343,  32.996
   433.2,0.002369,0.001226,0.038339,-0.000304,  32.993
   433.4,0.002341,0.001211,0.038044,-0.000252,  32.984
   433.6,0.002301,0.001179,0.037730,-0.000213,  32.977
   433.8,0.002268,0.001140,0.037394,-0.000187,  32.958
   434.0,0.002253,0.001135,0.037030,-0.000174,  32.941
   434.2,0.002259,0.001139,0.036645,-0.000213,  32.916
   434.4,0.002275,0.001153,0.036470,-0.000278,  32.905
   434.6,0.002280,0.001165,0.036386,-0.000304,  32.895
   434.8,0.002301,0.001184,0.036366,-0.000317,  32.891
   435.0,0.002315,0.001208,0.036429,-0.000357,  32.894
   435.2,0.002274,0.001190,0.036583,-0.000357,  32.892
   435.4,0.002222,0.001159,0.036800,-0.000343,  32.890
   435.6,0.002135,0.001113,0.036948,-0.000330,  32.893
   435.8,0.002064,0.001045,0.037102,-0.000317,  32.893
   436.0,0.002003,0.000966,0.037262,-0.000317,  32.894
   436.2,0.001933,0.000870,0.037402,-0.000330,  32.911
   436.4,0.001930,0.000848,0.037507,-0.000370,  32.924
   436.6,0.001955,0.000865,0.037598,-0.000448,  32.936
   436.8,0.002021,0.000912,0.037146,-0.000552,  32.950
   437.0,0.002046,0.000937,0.036413,-0.000565,  32.957
   437.2,0.002069,0.000968,0.035394,-0.000578,  32.974
   437.4,0.002095,0.001008,0.034918,-0.000552,  32.983
   437.6,0.002115,0.001034,0.034576,-0.000500,  32.988
   437.8,0.002129,0.001055,0.034368,-0.000448,  32.994
   438.0,0.002140,0.001072,0.034251,-0.000383,  33.000
   438.2,0.002146,0.001070,0.034254,-0.000330,  32.997
   438.4,0.002123,0.001048,0.034362,-0.000278,  32.996
   438.6,0.002081,0.001016,0.034238,-0.000252,  32.987
   438.8,0.002016,0.001006,0.034031,-0.000226,  32.970
   439.0,0.001997,0.000992,0.033747,-0.000213,  32.959
   439.2,0.001984,0.000989,0.033589,-0.000200,  32.935
   439.4,0.001990,0.000993,0.033451,-0.000213,  32.905
   439.6,0.001996,0.001006,0.033334,-0.000265,  32.893
   439.8,0.002003,0.001032,0.033334,-0.000317,  32.883
   440.0,0.002029,0.001039,0.033390,-0.000330,  32.881
   440.2,0.002024,0.001031,0.033529,-0.000343,  32.880
   440.4,0.002000,0.001033,0.033703,-0.000343,  32.877
   440.6,0.001981,0.000986,0.033947,-0.000343,  32.882
   440.8,0.001914,0.000909,0.034226,-0.000365,  32.878
   441.0,0.001815,0.000808,0.034387,-0.000330,  32.880
   441.2,0.001701,0.000769,0.034498,-0.000330,  32.886
   441.4,0.001678,0.000755,0.034588,-0.000343,  32.896
   441.6,0.001680,0.000760,0.034622,-0.000383,  32.921
   441.8,0.001726,0.000766,0.034650,-0.000448,  32.937
   442.0,0.001760,0.000783,0.034650,-0.000500,  32.944
   442.2,0.001789,0.000815,0.034615,-0.000565,  32.960
   442.4,0.001844,0.000856,0.034469,-0.000656,  32.971
   442.6,0.001872,0.000883,0.034253,-0.000630,  32.982
   442.8,0.001885,0.000907,0.033953,-0.000565,  32.989
   443.0,0.001906,0.000930,0.033745,-0.000474,  32.993
   443.2,0.001906,0.000942,0.033537,-0.000409,  32.996
   443.4,0.001885,0.000953,0.033323,-0.000343,  32.996
   443.6,0.001869,0.000955,0.033018,-0.000304,  32.994
   443.8,0.001847,0.000931,0.032692,-0.000252,  32.983
   444.0,0.001803,0.000909,0.032297,-0.000226,  32.980
   444.2,0.001768,0.000865,0.031979,-0.000200,  32.963
   444.4,0.001763,0.000854,0.031689,-0.000187,  32.942
   444.6,0.001761,0.000863,0.031406,-0.000226,  32.917
   444.8,0.001788,0.000883,0.031212,-0.000278,  32.908
   445.0,0.001796,0.000893,0.031074,-0.000291,  32.906
   445.2,0.001801,0.000912,0.030949,-0.000317,  32.901
   445.4,0.001816,0.000926,0.030990,-0.000343,  32.905
   445.6,0.001793,0.000902,0.031135,-0.000343,  32.899
   445.8,0.001757,0.000873,0.031377,-0.000343,  32.894
   446.0,0.001704,0.000816,0.031272,-0.000317,  32.893
   446.2,0.001631,0.000752,0.031049,-0.000304,  32.893
   446.4,0.001569,0.000681,0.030707,-0.000330,  32.904
   446.6,0.001504,0.000592,0.030817,-0.000343,  32.916
   446.8,0.001434,0.000572,0.031074,-0.000396,  32.932
   447.0,0.001431,0.000587,0.031497,-0.000474,  32.942
   447.2,0.001450,0.000628,0.031609,-0.000591,  32.954
   447.4,0.001516,0.000651,0.031658,-0.000604,  32.970
   447.6,0.001546,0.000683,0.031632,-0.000604,  32.980
   447.8,0.001571,0.000724,0.031257,-0.000578,  32.989
   448.0,0.001611,0.000749,0.030675,-0.000539,  32.993
   448.2,0.001636,0.000775,0.029865,-0.000487,  33.000
   448.4,0.001649,0.000799,0.029680,-0.000422,  33.004
   448.6,0.001670,0.000794,0.029674,-0.000370,  33.013
   448.8,0.001646,0.000784,0.029863,-0.000330,  33.012
   449.0,0.001610,0.000756,0.029698,-0.000291,  33.008
   449.2,0.001551,0.000743,0.029430,-0.000265,  32.996
   449.4,0.001530,0.000739,0.029086,-0.000239,  32.975
   449.6,0.001531,0.000735,0.028853,-0.000226,  32.953
   449.8,0.001534,0.000738,0.028640,-0.000226,  32.931
   450.0,0.001536,0.000755,0.028434,-0.000287,  32.915
   450.2,0.001559,0.000781,0.028428,-0.000291,  32.910
   450.4,0.001582,0.000792,0.028525,-0.000357,  32.903
   450.6,0.001582,0.000794,0.028732,-0.000335,  32.903
   450.8,0.001573,0.000804,0.029042,-0.000348,  32.907
   451.0,0.001560,0.000759,0.029139,-0.000361,  32.906
   451.2,0.001496,0.000685,0.029220,-0.000326,  32.903
   451.4,0.001397,0.000595,0.029260,-0.000300,  32.902
   451.6,0.001283,0.000557,0.029093,-0.000322,  32.907
   451.8,0.001255,0.000531,0.028789,-0.000335,  32.922
   452.0,0.001248,0.000521,0.028367,-0.000361,  32.933
   452.2,0.001288,0.000524,0.028401,-0.000413,  32.944
   452.4,0.001312,0.000538,0.028608,-0.000465,  32.958
   452.6,0.001355,0.000570,0.028967,-0.000543,  32.978
   452.8,0.001413,0.000613,0.029002,-0.000634,  32.990
   453.0,0.001443,0.000645,0.028955,-0.000608,  32.995
   453.2,0.001478,0.000671,0.028818,-0.000556,  33.003
   453.4,0.001500,0.000706,0.028674,-0.000465,  33.007
   453.6,0.001505,0.000727,0.028482,-0.000400,  33.016
   453.8,0.001514,0.000742,0.028229,-0.000335,  33.017
   454.0,0.001500,0.000753,0.027982,-0.000296,  33.014
   454.2,0.001471,0.000738,0.027694,-0.000243,  33.011
   454.4,0.001447,0.000715,0.027406,-0.000217,  33.003
   454.6,0.001399,0.000671,0.027160,-0.000191,  32.981
   454.8,0.001388,0.000664,0.026914,-0.000213,  32.957
   455.0,0.001381,0.000674,0.026689,-0.000239,  32.940
   455.2,0.001397,0.000686,0.026031,-0.000278,  32.918
   455.4,0.001413,0.000697,0.025149,-0.000339,  32.915
   455.6,0.001418,0.000712,0.024084,-0.000352,  32.913
   455.8,0.001433,0.000733,0.024105,-0.000357,  32.914
   456.0,0.001447,0.000716,0.024574,-0.000357,  32.911
   456.2,0.001407,0.000684,0.025475,-0.000357,  32.914
   456.4,0.001357,0.000640,0.025906,-0.000343,  32.915
   456.6,0.001273,0.000578,0.026316,-0.000343,  32.914
   456.8,0.001205,0.000499,0.026707,-0.000343,  32.918
   457.0,0.001153,0.000401,0.026981,-0.000357,  32.927
   457.2,0.001088,0.000390,0.027145,-0.000396,  32.941
   457.4,0.001087,0.000409,0.027261,-0.000461,  32.957
   457.6,0.001130,0.000464,0.027316,-0.000565,  32.974
   457.8,0.001198,0.000493,0.027289,-0.000591,  32.984
   458.0,0.001234,0.000531,0.027187,-0.000604,  32.993
   458.2,0.001270,0.000576,0.027071,-0.000578,  32.999
   458.4,0.001308,0.000606,0.026921,-0.000539,  33.008
   458.6,0.001330,0.000631,0.026716,-0.000522,  33.019
   458.8,0.001343,0.000645,0.026491,-0.000435,  33.024
   459.0,0.001361,0.000647,0.026224,-0.000370,  33.024
   459.2,0.001338,0.000633,0.025917,-0.000317,  33.025
   459.4,0.001304,0.000606,0.025418,-0.000278,  33.020
   459.6,0.001248,0.000593,0.024803,-0.000252,  33.007
   459.8,0.001224,0.000577,0.024061,-0.000226,  32.997
   460.0,0.001219,0.000574,0.023211,-0.000213,  32.973
   460.2,0.001219,0.000581,0.023096,-0.000200,  32.954
   460.4,0.001221,0.000585,0.023178,-0.000213,  32.930
   460.6,0.001235,0.000605,0.023485,-0.000265,  32.926
   460.8,0.001264,0.000622,0.023614,-0.000330,  32.919
   461.0,0.001257,0.000630,0.023784,-0.000343,  32.923
   461.2,0.001251,0.000637,0.023981,-0.000357,  32.920
   461.4,0.001241,0.000641,0.024213,-0.000370,  32.919
   461.6,0.001173,0.000603,0.024464,-0.000357,  32.920
   461.8,0.001093,0.000532,0.024737,-0.000343,  32.921
   462.0,0.000985,0.000443,0.024968,-0.000330,  32.925
   462.2,0.000953,0.000407,0.025187,-0.000343,  32.928
   462.4,0.000962,0.000381,0.025398,-0.000383,  32.942
   462.6,0.000996,0.000371,0.025493,-0.000435,  32.955
   462.8,0.001020,0.000386,0.025514,-0.000487,  32.977
   463.0,0.001071,0.000415,0.025473,-0.000565,  32.990
   463.2,0.001125,0.000468,0.025411,-0.000656,  32.993
   463.4,0.001152,0.000498,0.025302,-0.000630,  33.008
   463.6,0.001180,0.000523,0.025132,-0.000565,  33.020
   463.8,0.001202,0.000553,0.024969,-0.000474,  33.019
   464.0,0.001213,0.000574,0.024772,-0.000409,  33.031
   464.2,0.001219,0.000587,0.024554,-0.000343,  33.027
   464.4,0.001216,0.000600,0.024296,-0.000304,  33.030
   464.6,0.001202,0.000590,0.024010,-0.000252,  33.029
   464.8,0.001180,0.000559,0.023691,-0.000226,  33.015
   465.0,0.001153,0.000518,0.023433,-0.000200,  33.006
   465.2,0.001108,0.000513,0.023196,-0.000187,  32.991
   465.4,0.001096,0.000513,0.022965,-0.000213,  32.958
   465.6,0.001108,0.000527,0.022844,-0.000265,  32.942
   465.8,0.001122,0.000534,0.022796,-0.000278,  32.925
   466.0,0.001126,0.000546,0.022796,-0.000304,  32.925
   466.2,0.001147,0.000570,0.022823,-0.000343,  32.919
   466.4,0.001161,0.000559,0.022891,-0.000343,  32.923
   466.6,0.001126,0.000531,0.023019,-0.000357,  32.922
   466.8,0.001077,0.000492,0.023162,-0.000343,  32.919
   467.0,0.001004,0.000427,0.023311,-0.000343,  32.924
   467.2,0.000939,0.000350,0.023494,-0.000330,  32.922
   467.4,0.000878,0.000252,0.023596,-0.000343,  32.927
   467.6,0.000805,0.000237,0.023677,-0.000343,  32.945
   467.8,0.000801,0.000259,0.023738,-0.000417,  32.962
   468.0,0.000842,0.000313,0.023765,-0.000461,  32.980
   468.2,0.000909,0.000340,0.023758,-0.000552,  32.998
   468.4,0.000944,0.000376,0.023711,-0.000565,  33.013
   468.6,0.000981,0.000421,0.023657,-0.000565,  33.021
   468.8,0.001023,0.000448,0.023317,-0.000539,  33.031
   469.0,0.001047,0.000478,0.022849,-0.000487,  33.034
   469.2,0.001066,0.000500,0.022259,-0.000448,  33.042
   469.4,0.001087,0.000508,0.021989,-0.000396,  33.047
   469.6,0.001066,0.000503,0.021827,-0.000343,  33.046
   469.8,0.001036,0.000490,0.021766,-0.000291,  33.037
   470.0,0.000989,0.000471,0.021570,-0.000252,  33.031
   470.2,0.000974,0.000469,0.021355,-0.000226,  33.020
   470.4,0.000982,0.000470,0.021152,-0.000200,  33.006
   470.6,0.001009,0.000468,0.021004,-0.000187,  32.981
   470.8,0.001027,0.000490,0.020856,-0.000200,  32.946
   471.0,0.001070,0.000524,0.020754,-0.000239,  32.931
   471.2,0.001122,0.000573,0.020802,-0.000304,  32.929
   471.4,0.001126,0.000596,0.020937,-0.000304,  32.929
   471.6,0.001130,0.000606,0.021146,-0.000304,  32.928
   471.8,0.001111,0.000613,0.021335,-0.000291,  32.926
   472.0,0.001037,0.000564,0.021565,-0.000278,  32.927
   472.2,0.000937,0.000490,0.021822,-0.000252,  32.927
   472.4,0.000802,0.000389,0.021998,-0.000239,  32.927
   472.6,0.000751,0.000336,0.022160,-0.000239,  32.938
   472.8,0.000738,0.000290,0.022315,-0.000265,  32.951
   473.0,0.000744,0.000255,0.022179,-0.000330,  32.961
   473.2,0.000752,0.000256,0.021854,-0.000396,  32.983
   473.4,0.000773,0.000281,0.021373,-0.000487,  32.994
   473.6,0.000814,0.000330,0.021299,-0.000617,  33.005
   473.8,0.000867,0.000355,0.021360,-0.000617,  33.010
   474.0,0.000891,0.000382,0.021510,-0.000552,  33.028
   474.2,0.000928,0.000419,0.021382,-0.000474,  33.030
   474.4,0.000959,0.000444,0.021166,-0.000422,  33.035
   474.6,0.000967,0.000456,0.020855,-0.000370,  33.038
   474.8,0.000976,0.000469,0.020660,-0.000317,  33.040
   475.0,0.000973,0.000458,0.020505,-0.000265,  33.042
   475.2,0.000947,0.000424,0.020343,-0.000239,  33.033
   475.4,0.000920,0.000379,0.020094,-0.000200,  33.021
   475.6,0.000872,0.000375,0.019805,-0.000187,  33.008
   475.8,0.000857,0.000376,0.019482,-0.000187,  32.981
   476.0,0.000870,0.000396,0.019320,-0.000226,  32.965
   476.2,0.000886,0.000406,0.019213,-0.000265,  32.955
   476.4,0.000894,0.000427,0.019186,-0.000313,  32.948
   476.6,0.000912,0.000451,0.019253,-0.000304,  32.939
   476.8,0.000928,0.000440,0.019401,-0.000357,  32.939
   477.0,0.000897,0.000417,0.019643,-0.000357,  32.942
   477.2,0.000843,0.000380,0.019784,-0.000357,  32.937
   477.4,0.000771,0.000316,0.019933,-0.000343,  32.935
   477.6,0.000705,0.000241,0.020074,-0.000330,  32.941
   477.8,0.000638,0.000143,0.020215,-0.000343,  32.940
   478.0,0.000574,0.000113,0.020370,-0.000343,  32.951
   478.2,0.000571,0.000110,0.020525,-0.000383,  32.971
   478.4,0.000604,0.000133,0.020667,-0.000461,  32.989
   478.6,0.000681,0.000193,0.020694,-0.000552,  33.001
   478.8,0.000711,0.000225,0.020667,-0.000565,  33.010
   479.0,0.000750,0.000256,0.020580,-0.000565,  33.026
   479.2,0.000793,0.000301,0.020452,-0.000539,  33.034
   479.4,0.000817,0.000326,0.020270,-0.000487,  33.038
   479.6,0.000842,0.000355,0.020061,-0.000435,  33.042
   479.8,0.000863,0.000380,0.019825,-0.000370,  33.050
   480.0,0.000845,0.000381,0.019523,-0.000317,  33.049
   480.2,0.000814,0.000374,0.019193,-0.000265,  33.050
   480.4,0.000771,0.000357,0.018951,-0.000239,  33.042
   480.6,0.000747,0.000344,0.018737,-0.000178,  33.033
   480.8,0.000739,0.000330,0.018529,-0.000165,  33.017
   481.0,0.000742,0.000319,0.018294,-0.000178,  33.001
   481.2,0.000745,0.000325,0.018066,-0.000156,  32.976
   481.4,0.000760,0.000337,0.017838,-0.000209,  32.960
   481.6,0.000784,0.000368,0.017791,-0.000309,  32.959
   481.8,0.000807,0.000385,0.017798,-0.000322,  32.954
   482.0,0.000817,0.000394,0.017891,-0.000322,  32.946
   482.2,0.000818,0.000411,0.018046,-0.000322,  32.942
   482.4,0.000823,0.000376,0.018253,-0.000309,  32.945
   482.6,0.000763,0.000312,0.018515,-0.000309,  32.947
   482.8,0.000673,0.000225,0.018676,-0.000309,  32.941
   483.0,0.000559,0.000177,0.018830,-0.000309,  32.947
   483.2,0.000513,0.000131,0.018964,-0.000335,  32.961
   483.4,0.000483,0.000092,0.019112,-0.000361,  32.982
   483.6,0.000493,0.000091,0.019260,-0.000413,  32.991
   483.8,0.000508,0.000119,0.019388,-0.000491,  33.011
   484.0,0.000553,0.000176,0.019341,-0.000595,  33.025
   484.2,0.000620,0.000201,0.019173,-0.000595,  33.030
   484.4,0.000657,0.000236,0.018911,-0.000543,  33.036
   484.6,0.000692,0.000268,0.018689,-0.000465,  33.042
   484.8,0.000718,0.000289,0.018394,-0.000426,  33.049
   485.0,0.000735,0.000309,0.018086,-0.000374,  33.051
   485.2,0.000739,0.000325,0.017851,-0.000383,  33.050
   485.4,0.000742,0.000309,0.017624,-0.000309,  33.050
   485.6,0.000725,0.000283,0.017409,-0.000304,  33.047
   485.8,0.000685,0.000238,0.017162,-0.000265,  33.036
   486.0,0.000644,0.000229,0.016895,-0.000204,  33.028
   486.2,0.000638,0.000233,0.016614,-0.000204,  33.007
   486.4,0.000637,0.000251,0.016200,-0.000217,  32.978
   486.6,0.000664,0.000261,0.015713,-0.000256,  32.965
   486.8,0.000678,0.000282,0.015148,-0.000283,  32.959
   487.0,0.000695,0.000312,0.014517,-0.000309,  32.960
   487.2,0.000720,0.000301,0.014643,-0.000335,  32.958
   487.4,0.000698,0.000284,0.015022,-0.000370,  32.957
   487.6,0.000652,0.000257,0.015654,-0.000370,  32.946
   487.8,0.000587,0.000215,0.016020,-0.000370,  32.945
   488.0,0.000520,0.000162,0.016407,-0.000404,  32.947
   488.2,0.000438,0.000094,0.016774,-0.000404,  32.952
   488.4,0.000348,0.000015,0.017095,-0.000370,  32.961
   488.6,0.000346,0.000011,0.017396,-0.000409,  32.979
   488.8,0.000375,0.000019,0.017644,-0.000487,  32.999
   489.0,0.000451,0.000055,0.017691,-0.000578,  33.008
   489.2,0.000496,0.000082,0.017637,-0.000604,  33.028
   489.4,0.000534,0.000129,0.017450,-0.000604,  33.031
   489.6,0.000585,0.000176,0.017309,-0.000591,  33.041
   489.8,0.000612,0.000203,0.017142,-0.000552,  33.045
   490.0,0.000640,0.000235,0.016921,-0.000487,  33.046
   490.2,0.000660,0.000261,0.016681,-0.000422,  33.056
   490.4,0.000647,0.000265,0.016420,-0.000370,  33.055
   490.6,0.000626,0.000265,0.016113,-0.000330,  33.058
   490.8,0.000581,0.000252,0.015913,-0.000291,  33.052
   491.0,0.000567,0.000239,0.015760,-0.000252,  33.041
   491.2,0.000549,0.000231,0.015620,-0.000226,  33.032
   491.4,0.000550,0.000210,0.015027,-0.000213,  33.021
   491.6,0.000548,0.000209,0.014224,-0.000213,  32.993
   491.8,0.000552,0.000224,0.013197,-0.000265,  32.972
   492.0,0.000576,0.000245,0.013171,-0.000343,  32.969
   492.2,0.000595,0.000253,0.013541,-0.000322,  32.966
   492.4,0.000597,0.000271,0.014283,-0.000335,  32.963
   492.6,0.000604,0.000286,0.014629,-0.000348,  32.961
   492.8,0.000601,0.000245,0.014954,-0.000313,  32.959
   493.0,0.000538,0.000186,0.015280,-0.000287,  32.956
   493.2,0.000461,0.000101,0.015587,-0.000322,  32.953
   493.4,0.000346,0.000045,0.015873,-0.000335,  32.950
   493.6,0.000297,0.000006,0.016147,-0.000348,  32.961
   493.8,0.000278,-0.000029,0.016333,-0.000387,  32.986
   494.0,0.000275,-0.000033,0.016440,-0.000439,  32.999
   494.2,0.000288,-0.000003,0.016500,-0.000517,  33.009
   494.4,0.000328,0.000041,0.016460,-0.000621,  33.025
   494.6,0.000388,0.000068,0.016327,-0.000647,  33.034
   494.8,0.000421,0.000104,0.016100,-0.000634,  33.042
   495.0,0.000466,0.000138,0.015920,-0.000630,  33.048
   495.2,0.000503,0.000162,0.015693,-0.000543,  33.052
   495.4,0.000521,0.000193,0.015420,-0.000526,  33.057
   495.6,0.000548,0.000217,0.015207,-0.000474,  33.056
   495.8,0.000559,0.000206,0.015041,-0.000387,  33.058
   496.0,0.000541,0.000182,0.014874,-0.000335,  33.052
   496.2,0.000514,0.000147,0.014721,-0.000296,  33.046
   496.4,0.000464,0.000140,0.014548,-0.000256,  33.037
   496.6,0.000451,0.000138,0.014369,-0.000243,  33.019
   496.8,0.000466,0.000146,0.014209,-0.000243,  32.994
   497.0,0.000486,0.000160,0.014136,-0.000270,  32.981
   497.2,0.000493,0.000172,0.014103,-0.000283,  32.977
   497.4,0.000520,0.000199,0.014123,-0.000322,  32.973
   497.6,0.000542,0.000222,0.014196,-0.000374,  32.970
   497.8,0.000519,0.000217,0.014329,-0.000374,  32.971
   498.0,0.000489,0.000206,0.014488,-0.000374,  32.972
   498.2,0.000427,0.000183,0.014654,-0.000361,  32.972
   498.4,0.000353,0.000126,0.014841,-0.000348,  32.967
   498.6,0.000279,0.000045,0.015040,-0.000335,  32.965
   498.8,0.000184,-0.000059,0.015173,-0.000335,  32.978
   499.0,0.000177,-0.000076,0.015273,-0.000374,  32.987
   499.2,0.000220,-0.000063,0.015340,-0.000439,  33.003
   499.4,0.000299,-0.000018,0.015200,-0.000517,  33.012
   499.6,0.000339,0.000016,0.014928,-0.000543,  33.029
   499.8,0.000394,0.000056,0.014516,-0.000556,  33.044
   500.0,0.000441,0.000105,0.014389,-0.000556,  33.049
   500.2,0.000475,0.000138,0.014349,-0.000517,  33.054
   500.4,0.000499,0.000168,0.014389,-0.000452,  33.061
   500.6,0.000512,0.000189,0.014236,-0.000374,  33.066
   500.8,0.000526,0.000200,0.014057,-0.000357,  33.066
   501.0,0.000521,0.000205,0.013824,-0.000304,  33.067
   501.2,0.000504,0.000199,0.013665,-0.000265,  33.065
   501.4,0.000473,0.000184,0.013532,-0.000261,  33.055
   501.6,0.000456,0.000169,0.013386,-0.000222,  33.045
   501.8,0.000434,0.000142,0.013234,-0.000187,  33.025
   502.0,0.000428,0.000140,0.013062,-0.000200,  33.011
   502.2,0.000437,0.000156,0.012909,-0.000252,  32.993
   502.4,0.000447,0.000176,0.012876,-0.000330,  32.979
   502.6,0.000473,0.000186,0.012863,-0.000343,  32.976
   502.8,0.000475,0.000200,0.012923,-0.000357,  32.972
   503.0,0.000480,0.000212,0.013069,-0.000370,  32.973
   503.2,0.000478,0.000177,0.013261,-0.000370,  32.972
   503.4,0.000421,0.000127,0.013506,-0.000357,  32.973
   503.6,0.000339,0.000046,0.013751,-0.000357,  32.969
   503.8,0.000224,-0.000008,0.014010,-0.000370,  32.970
   504.0,0.000178,-0.000048,0.014289,-0.000357,  32.975
   504.2,0.000168,-0.000089,0.014461,-0.000383,  32.988
   504.4,0.000168,-0.000083,0.014548,-0.000396,  33.003
   504.6,0.000183,-0.000056,0.014614,-0.000496,  33.016
   504.8,0.000232,0.000006,0.014594,-0.000526,  33.036
   505.0,0.000300,0.000042,0.014495,-0.000630,  33.043
   505.2,0.000333,0.000072,0.014315,-0.000595,  33.050
   505.4,0.000366,0.000105,0.014142,-0.000543,  33.057
   505.6,0.000404,0.000131,0.013930,-0.000465,  33.067
   505.8,0.000419,0.000155,0.013652,-0.000391,  33.065
   506.0,0.000436,0.000165,0.013333,-0.000326,  33.070
   506.2,0.000451,0.000163,0.013154,-0.000322,  33.066
   506.4,0.000431,0.000160,0.012982,-0.000283,  33.068
   506.6,0.000401,0.000129,0.012830,-0.000243,  33.062
   506.8,0.000355,0.000102,0.012651,-0.000230,  33.045
   507.0,0.000342,0.000097,0.012459,-0.000217,  33.036
   507.2,0.000352,0.000097,0.012254,-0.000204,  33.017
   507.4,0.000366,0.000111,0.012161,-0.000230,  32.998
   507.6,0.000373,0.000123,0.012115,-0.000256,  32.983
   507.8,0.000399,0.000142,0.012115,-0.000283,  32.976
   508.0,0.000419,0.000167,0.012102,-0.000335,  32.976
   508.2,0.000395,0.000162,0.012115,-0.000348,  32.974
   508.4,0.000365,0.000149,0.012129,-0.000348,  32.975
   508.6,0.000314,0.000126,0.012268,-0.000335,  32.973
   508.8,0.000240,0.000064,0.012466,-0.000357,  32.971
   509.0,0.000160,-0.000012,0.012731,-0.000357,  32.974
   509.2,0.000061,-0.000110,0.014057,-0.000343,  32.986
   509.4,0.000038,-0.000133,0.015933,-0.000404,  32.992
   509.6,0.000043,-0.000124,0.018366,-0.000470,  33.009
   509.8,0.000088,-0.000085,0.018478,-0.000513,  33.025
   510.0,0.000160,-0.000058,0.017691,-0.000539,  33.032
   510.2,0.000202,-0.000013,0.016019,-0.000565,  33.049
   510.4,0.000250,0.000038,0.015342,-0.000578,  33.050
   510.6,0.000303,0.000069,0.014711,-0.000552,  33.062
   510.8,0.000333,0.000110,0.014146,-0.000500,  33.065
   511.0,0.000366,0.000138,0.013661,-0.000409,  33.066
   511.2,0.000404,0.000150,0.013216,-0.000357,  33.074
   511.4,0.000400,0.000158,0.012857,-0.000317,  33.081
   511.6,0.000383,0.000153,0.012552,-0.000278,  33.083
   511.8,0.000349,0.000145,0.012293,-0.000239,  33.071
   512.0,0.000332,0.000122,0.012093,-0.000213,  33.067
   512.2,0.000324,0.000092,0.011835,-0.000200,  33.042
   512.4,0.000310,0.000094,0.011564,-0.000213,  33.020
   512.6,0.000306,0.000105,0.011293,-0.000226,  33.003
   512.8,0.000324,0.000129,0.011220,-0.000265,  32.979
   513.0,0.000353,0.000138,0.011226,-0.000317,  32.977
   513.2,0.000355,0.000155,0.011338,-0.000365,  32.973
   513.4,0.000358,0.000170,0.011436,-0.000330,  32.966
   513.6,0.000367,0.000141,0.011561,-0.000357,  32.970
   513.8,0.000313,0.000085,0.011746,-0.000343,  32.969
   514.0,0.000235,0.000007,0.011872,-0.000330,  32.967
   514.2,0.000128,-0.000040,0.011997,-0.000330,  32.971
   514.4,0.000085,-0.000080,0.012129,-0.000330,  32.972
   514.6,0.000075,-0.000120,0.012235,-0.000343,  32.984
   514.8,0.000075,-0.000129,0.012354,-0.000383,  33.004
   515.0,0.000091,-0.000117,0.012460,-0.000435,  33.018
   515.2,0.000142,-0.000093,0.012559,-0.000500,  33.035
   515.4,0.000204,-0.000043,0.012499,-0.000617,  33.046
   515.6,0.000236,-0.000013,0.012367,-0.000617,  33.058
   515.8,0.000277,0.000024,0.012129,-0.000565,  33.070
   516.0,0.000310,0.000063,0.011931,-0.000487,  33.073
   516.2,0.000326,0.000091,0.011667,-0.000435,  33.089
   516.4,0.000347,0.000110,0.011383,-0.000383,  33.087
   516.6,0.000355,0.000133,0.011172,-0.000330,  33.092
   516.8,0.000334,0.000122,0.010967,-0.000278,  33.084
   517.0,0.000310,0.000099,0.010776,-0.000252,  33.078
   517.2,0.000266,0.000055,0.010598,-0.000226,  33.069
   517.4,0.000267,0.000054,0.010433,-0.000213,  33.049
   517.6,0.000296,0.000080,0.010262,-0.000213,  33.029
   517.8,0.000348,0.000116,0.010196,-0.000239,  32.996
   518.0,0.000370,0.000141,0.010189,-0.000252,  32.980
   518.2,0.000395,0.000178,0.010229,-0.000278,  32.972
   518.4,0.000412,0.000216,0.010347,-0.000317,  32.966
   518.6,0.000432,0.000215,0.010531,-0.000304,  32.960
   518.8,0.000413,0.000205,0.010782,-0.000291,  32.963
   519.0,0.000382,0.000179,0.010986,-0.000265,  32.966
   519.2,0.000334,0.000111,0.011210,-0.000252,  32.964
   519.4,0.000250,0.000023,0.011435,-0.000226,  32.962
   519.6,0.000140,-0.000091,0.011600,-0.000239,  32.965
   519.8,0.000007,-0.000134,0.011732,-0.000278,  32.980
   520.0,-0.000012,-0.000144,0.011845,-0.000343,  32.992
   520.2,0.000000,-0.000134,0.011924,-0.000435,  33.008
   520.4,0.000056,-0.000122,0.011977,-0.000474,  33.030
   520.6,0.000089,-0.000081,0.011983,-0.000539,  33.041
   520.8,0.000134,-0.000034,0.011851,-0.000578,  33.051
   521.0,0.000187,-0.000007,0.011646,-0.000552,  33.059
   521.2,0.000216,0.000027,0.011349,-0.000500,  33.062
   521.4,0.000247,0.000055,0.011091,-0.000422,  33.069
   521.6,0.000272,0.000063,0.010834,-0.000383,  33.075
   521.8,0.000266,0.000074,0.010564,-0.000330,  33.079
   522.0,0.000249,0.000074,0.010307,-0.000304,  33.078
   522.2,0.000227,0.000063,0.010051,-0.000291,  33.079
   522.4,0.000207,0.000041,0.009775,-0.000287,  33.066
   522.6,0.000193,0.000019,0.009604,-0.000226,  33.042
   522.8,0.000183,0.000020,0.009479,-0.000200,  33.014
   523.0,0.000182,0.000028,0.009420,-0.000200,  32.996
   523.2,0.000202,0.000049,0.009394,-0.000252,  32.977
   523.4,0.000229,0.000062,0.009387,-0.000317,  32.972
   523.6,0.000237,0.000077,0.009420,-0.000330,  32.968
   523.8,0.000253,0.000096,0.009466,-0.000343,  32.965
   524.0,0.000267,0.000081,0.009578,-0.000357,  32.968
   524.2,0.000219,0.000046,0.009716,-0.000343,  32.966
   524.4,0.000140,0.000004,0.009900,-0.000343,  32.964
   524.6,0.000027,-0.000060,0.010071,-0.000343,  32.969
   524.8,-0.000012,-0.000110,0.010275,-0.000343,  32.968
   525.0,-0.000036,-0.000155,0.010473,-0.000370,  32.977
   525.2,-0.000039,-0.000202,0.010611,-0.000396,  32.992
   525.4,-0.000020,-0.000199,0.010736,-0.000448,  33.008
   525.6,0.000024,-0.000167,0.010835,-0.000526,  33.023
   525.8,0.000089,-0.000110,0.010815,-0.000630,  33.043
   526.0,0.000124,-0.000078,0.010729,-0.000630,  33.050
   526.2,0.000173,-0.000041,0.010551,-0.000578,  33.058
   526.4,0.000209,-0.000004,0.010334,-0.000500,  33.064
   526.6,0.000227,0.000020,0.010077,-0.000448,  33.070
   526.8,0.000254,0.000050,0.009775,-0.000383,  33.075
   527.0,0.000265,0.000076,0.009558,-0.000330,  33.086
   527.2,0.000259,0.000066,0.009322,-0.000278,  33.085
   527.4,0.000230,0.000045,0.009099,-0.000252,  33.080
   527.6,0.000206,0.000008,0.008908,-0.000226,  33.070
   527.8,0.000159,-0.000004,0.008725,-0.000200,  33.052
   528.0,0.000156,-0.000004,0.008548,-0.000213,  33.038
   528.2,0.000159,0.000008,0.008482,-0.000226,  33.010
   528.4,0.000177,0.000022,0.008482,-0.000239,  32.990
   528.6,0.000189,0.000045,0.008547,-0.000291,  32.972
   528.8,0.000217,0.000075,0.008652,-0.000343,  32.960
   529.0,0.000245,0.000078,0.008809,-0.000343,  32.964
   529.2,0.000233,0.000078,0.009012,-0.000357,  32.960
   529.4,0.000215,0.000066,0.009189,-0.000343,  32.954
   529.6,0.000173,0.000010,0.009400,-0.000330,  32.951
   529.8,0.000096,-0.000071,0.009577,-0.000317,  32.947
   530.0,0.000005,-0.000177,0.009801,-0.000304,  32.949
   530.2,-0.000115,-0.000204,0.010031,-0.000317,  32.959
   530.4,-0.000139,-0.000210,0.010281,-0.000357,  32.976
   530.6,-0.000110,-0.000194,0.010209,-0.000396,  32.998
   530.8,-0.000048,-0.000173,0.009966,-0.000461,  33.017
   531.0,-0.000019,-0.000142,0.009560,-0.000535,  33.032
   531.2,0.000030,-0.000096,0.009357,-0.000565,  33.042
   531.4,0.000083,-0.000067,0.009179,-0.000617,  33.050
   531.6,0.000113,-0.000038,0.009028,-0.000591,  33.058
   531.8,0.000153,-0.000005,0.008877,-0.000539,  33.067
   532.0,0.000184,0.000009,0.008753,-0.000461,  33.072
   532.2,0.000183,0.000018,0.008648,-0.000409,  33.084
   532.4,0.000169,0.000016,0.008542,-0.000370,  33.079
   532.6,0.000141,0.000009,0.008450,-0.000317,  33.078
   532.8,0.000123,-0.000001,0.008364,-0.000265,  33.065
   533.0,0.000106,-0.000018,0.008291,-0.000252,  33.046
   533.2,0.000093,-0.000042,0.008167,-0.000226,  33.028
   533.4,0.000092,-0.000032,0.008003,-0.000226,  32.999
   533.6,0.000113,-0.000021,0.007827,-0.000278,  32.980
   533.8,0.000142,-0.000008,0.007827,-0.000343,  32.970
   534.0,0.000149,0.000011,0.007879,-0.000357,  32.968
   534.2,0.000167,0.000028,0.007990,-0.000370,  32.966
   534.4,0.000175,0.000047,0.008147,-0.000383,  32.968
   534.6,0.000124,0.000027,0.008363,-0.000383,  32.970
   534.8,0.000055,-0.000022,0.008606,-0.000357,  32.965
   535.0,-0.000048,-0.000094,0.008789,-0.000357,  32.964
   535.2,-0.000097,-0.000150,0.008947,-0.000357,  32.967
   535.4,-0.000128,-0.000201,0.009092,-0.000357,  32.972
   535.6,-0.000144,-0.000249,0.009269,-0.000383,  32.990
   535.8,-0.000132,-0.000252,0.009433,-0.000435,  33.012
   536.0,-0.000087,-0.000226,0.009597,-0.000513,  33.026
   536.2,-0.000016,-0.000170,0.009544,-0.000630,  33.041
   536.4,0.000018,-0.000141,0.009393,-0.000643,  33.050
   536.6,0.000049,-0.000103,0.009118,-0.000604,  33.057
   536.8,0.000083,-0.000058,0.008928,-0.000526,  33.065
   537.0,0.000106,-0.000035,0.008717,-0.000474,  33.071
   537.2,0.000124,-0.000007,0.008501,-0.000422,  33.074
   537.4,0.000150,0.000020,0.008278,-0.000343,  33.078
   537.6,0.000167,0.000008,0.008023,-0.000291,  33.086
   537.8,0.000146,-0.000016,0.007742,-0.000252,  33.081
   538.0,0.000120,-0.000052,0.007565,-0.000239,  33.071
   538.2,0.000064,-0.000061,0.007434,-0.000226,  33.052
   538.4,0.000049,-0.000064,0.007342,-0.000213,  33.042
   538.6,0.000054,-0.000056,0.007257,-0.000239,  33.021
   538.8,0.000068,-0.000048,0.007204,-0.000265,  33.000
   539.0,0.000075,-0.000031,0.007198,-0.000304,  32.987
   539.2,0.000095,0.000000,0.007244,-0.000370,  32.979
   539.4,0.000127,0.000007,0.007323,-0.000383,  32.976
   539.6,0.000109,0.000001,0.007434,-0.000383,  32.965
   539.8,0.000084,-0.000012,0.007422,-0.000383,  32.967
   540.0,0.000049,-0.000065,0.007378,-0.000370,  32.965
   540.2,-0.000023,-0.000141,0.007255,-0.000391,  32.960
   540.4,-0.000115,-0.000248,0.007425,-0.000357,  32.952
   540.6,-0.000223,-0.000289,0.007706,-0.000343,  32.964
   540.8,-0.000249,-0.000302,0.008104,-0.000370,  32.986
   541.0,-0.000238,-0.000288,0.008613,-0.000422,  32.997
   541.2,-0.000186,-0.000267,0.008515,-0.000500,  33.015
   541.4,-0.000160,-0.000235,0.008234,-0.000552,  33.031
   541.6,-0.000115,-0.000189,0.007784,-0.000591,  33.044
   541.8,-0.000052,-0.000159,0.007680,-0.000656,  33.057
   542.0,-0.000014,-0.000133,0.007659,-0.000643,  33.061
   542.2,0.000025,-0.000106,0.007724,-0.000604,  33.068
   542.4,0.000071,-0.000085,0.007645,-0.000526,  33.073
   542.6,0.000078,-0.000071,0.007546,-0.000474,  33.073
   542.8,0.000070,-0.000049,0.007415,-0.000409,  33.081
   543.0,0.000054,-0.000036,0.007277,-0.000357,  33.081
   543.2,0.000039,-0.000037,0.007153,-0.000304,  33.072
   543.4,0.000025,-0.000054,0.007003,-0.000252,  33.055
   543.6,0.000015,-0.000084,0.006840,-0.000239,  33.043
   543.8,0.000014,-0.000079,0.006644,-0.000239,  33.012
   544.0,0.000028,-0.000069,0.006442,-0.000278,  32.986
   544.2,0.000060,-0.000052,0.006488,-0.000343,  32.977
   544.4,0.000067,-0.000042,0.006605,-0.000357,  32.968
   544.6,0.000078,-0.000023,0.006833,-0.000370,  32.968
   544.8,0.000087,-0.000002,0.006833,-0.000383,  32.969
   545.0,0.000042,-0.000028,0.006762,-0.000383,  32.974
   545.2,-0.000027,-0.000073,0.006614,-0.000357,  32.967
   545.4,-0.000117,-0.000133,0.006777,-0.000357,  32.970
   545.6,-0.000162,-0.000182,0.007058,-0.000357,  32.969
   545.8,-0.000196,-0.000233,0.007430,-0.000357,  32.979
   546.0,-0.000204,-0.000283,0.007665,-0.000383,  32.986
   546.2,-0.000210,-0.000288,0.007880,-0.000400,  33.006
   546.4,-0.000182,-0.000258,0.008070,-0.000478,  33.020
   546.6,-0.000138,-0.000204,0.008134,-0.000595,  33.038
   546.8,-0.000069,-0.000178,0.008114,-0.000573,  33.049
   547.0,-0.000028,-0.000142,0.008022,-0.000534,  33.056
   547.2,0.000008,-0.000101,0.007885,-0.000504,  33.068
   547.4,0.000051,-0.000072,0.007668,-0.000487,  33.072
   547.6,0.000082,-0.000043,0.007407,-0.000422,  33.078
   547.8,0.000097,-0.000017,0.007185,-0.000357,  33.090
   548.0,0.000118,-0.000026,0.006917,-0.000339,  33.093
   548.2,0.000097,-0.000040,0.006637,-0.000287,  33.087
   548.4,0.000064,-0.000075,0.006449,-0.000239,  33.077
   548.6,0.000010,-0.000084,0.006246,-0.000226,  33.070
   548.8,-0.000007,-0.000082,0.006071,-0.000213,  33.049
   549.0,0.000002,-0.000076,0.006012,-0.000213,  33.033
   549.2,0.000016,-0.000069,0.005998,-0.000226,  33.011
   549.4,0.000021,-0.000047,0.006057,-0.000274,  32.992
   549.6,0.000047,-0.000025,0.006122,-0.000291,  32.983
   549.8,0.000069,-0.000026,0.006219,-0.000343,  32.980
   550.0,0.000054,-0.000026,0.006336,-0.000343,  32.978
   550.2,0.000032,-0.000034,0.006506,-0.000357,  32.978
   550.4,-0.000005,-0.000090,0.006650,-0.000343,  32.979
   550.6,-0.000078,-0.000158,0.006820,-0.000330,  32.977
   550.8,-0.000173,-0.000260,0.006977,-0.000330,  32.978
   551.0,-0.000281,-0.000296,0.007192,-0.000317,  32.980
   551.2,-0.000299,-0.000313,0.007414,-0.000309,  32.990
   551.4,-0.000277,-0.000302,0.007669,-0.000361,  33.005
   551.6,-0.000206,-0.000274,0.007734,-0.000439,  33.019
   551.8,-0.000171,-0.000254,0.007695,-0.000443,  33.040
   552.0,-0.000119,-0.000218,0.007591,-0.000482,  33.047
   552.2,-0.000062,-0.000166,0.007467,-0.000582,  33.054
   552.4,-0.000030,-0.000139,0.007278,-0.000591,  33.061
   552.6,0.000013,-0.000105,0.007029,-0.000539,  33.074
   552.8,0.000041,-0.000075,0.006846,-0.000461,  33.080
   553.0,0.000046,-0.000059,0.006670,-0.000444,  33.090
   553.2,0.000050,-0.000043,0.006480,-0.000404,  33.090
   553.4,0.000036,-0.000037,0.006311,-0.000330,  33.087
   553.6,0.000015,-0.000048,0.006128,-0.000278,  33.083
   553.8,-0.000005,-0.000068,0.005940,-0.000252,  33.067
   554.0,-0.000030,-0.000098,0.005816,-0.000226,  33.057
   554.2,-0.000030,-0.000096,0.005711,-0.000226,  33.031
   554.4,-0.000027,-0.000088,0.005627,-0.000265,  33.006
   554.6,-0.000007,-0.000065,0.005199,-0.000317,  32.986
   554.8,0.000012,-0.000046,0.004617,-0.000330,  32.980
   555.0,0.000026,-0.000032,0.003863,-0.000357,  32.977
   555.2,0.000035,-0.000011,0.003941,-0.000370,  32.974
   555.4,0.000049,-0.000031,0.004342,-0.000357,  32.975
   555.6,0.000003,-0.000072,0.005060,-0.000357,  32.975
   555.8,-0.000064,-0.000132,0.005469,-0.000343,  32.972
   556.0,-0.000150,-0.000183,0.005871,-0.000343,  32.975
   556.2,-0.000199,-0.000235,0.006268,-0.000357,  32.976
   556.4,-0.000229,-0.000299,0.006554,-0.000370,  32.988
   556.6,-0.000242,-0.000304,0.006763,-0.000422,  33.006
   556.8,-0.000229,-0.000271,0.006932,-0.000487,  33.019
   557.0,-0.000178,-0.000214,0.006978,-0.000591,  33.036
   557.2,-0.000107,-0.000185,0.006899,-0.000591,  33.047
   557.4,-0.000072,-0.000142,0.006743,-0.000552,  33.058
   557.6,-0.000023,-0.000102,0.006307,-0.000500,  33.066
   557.8,0.000013,-0.000074,0.005684,-0.000461,  33.076
   558.0,0.000035,-0.000045,0.004854,-0.000409,  33.077
   558.2,0.000066,-0.000022,0.004685,-0.000370,  33.085
   558.4,0.000083,-0.000024,0.004743,-0.000330,  33.093
   558.6,0.000060,-0.000046,0.005013,-0.000326,  33.095
   558.8,0.000030,-0.000077,0.004993,-0.000252,  33.087
   559.0,-0.000023,-0.000083,0.004934,-0.000213,  33.080
   559.2,-0.000038,-0.000092,0.004831,-0.000187,  33.063
   559.4,-0.000031,-0.000091,0.004682,-0.000187,  33.036
   559.6,-0.000020,-0.000085,0.004694,-0.000200,  33.013
   559.8,-0.000010,-0.000072,0.004720,-0.000213,  32.987
   560.0,0.000013,-0.000055,0.004778,-0.000265,  32.978
   560.2,0.000036,-0.000034,0.004907,-0.000330,  32.970
   560.4,0.000023,-0.000036,0.005070,-0.000343,  32.971
   560.6,0.000013,-0.000031,0.005264,-0.000343,  32.970
   560.8,-0.000017,-0.000039,0.005517,-0.000357,  32.966
   561.0,-0.000094,-0.000093,0.005816,-0.000343,  32.969
   561.2,-0.000180,-0.000161,0.006148,-0.000330,  32.967
   561.4,-0.000294,-0.000260,0.006382,-0.000330,  32.965
   561.6,-0.000318,-0.000298,0.006584,-0.000343,  32.973
   561.8,-0.000301,-0.000307,0.006768,-0.000383,  33.000
   562.0,-0.000248,-0.000301,0.006788,-0.000448,  33.011
   562.2,-0.000218,-0.000287,0.006684,-0.000487,  33.027
   562.4,-0.000171,-0.000246,0.006496,-0.000539,  33.049
   562.6,-0.000114,-0.000197,0.006235,-0.000617,  33.061
   562.8,-0.000084,-0.000168,0.005878,-0.000591,  33.077
   563.0,-0.000050,-0.000134,0.005442,-0.000539,  33.083
   563.2,-0.000016,-0.000104,0.005247,-0.000461,  33.098
   563.4,-0.000005,-0.000086,0.005123,-0.000409,  33.098
   563.6,-0.000002,-0.000073,0.005064,-0.000357,  33.103
   563.8,-0.000006,-0.000064,0.004959,-0.000304,  33.097
   564.0,-0.000026,-0.000076,0.004855,-0.000252,  33.094
   564.2,-0.000038,-0.000085,0.004731,-0.000226,  33.083
   564.4,-0.000044,-0.000107,0.004652,-0.000200,  33.067
   564.6,-0.000049,-0.000099,0.004600,-0.000200,  33.041
   564.8,-0.000034,-0.000065,0.004574,-0.000252,  33.009
   565.0,-0.000000,-0.000018,0.004612,-0.000330,  32.995
   565.2,0.000054,0.000005,0.004683,-0.000330,  32.982
   565.4,0.000070,0.000033,0.004787,-0.000330,  32.976
   565.6,0.000087,0.000056,0.004976,-0.000330,  32.974
   565.8,0.000099,0.000032,0.005197,-0.000304,  32.974
   566.0,0.000047,-0.000017,0.005470,-0.000278,  32.971
   566.2,-0.000031,-0.000092,0.005478,-0.000265,  32.974
   566.4,-0.000133,-0.000165,0.005337,-0.000252,  32.974
   566.6,-0.000204,-0.000247,0.005105,-0.000252,  32.974
   566.8,-0.000266,-0.000340,0.005307,-0.000252,  32.988
   567.0,-0.000318,-0.000362,0.005650,-0.000278,  32.995
   567.2,-0.000322,-0.000345,0.006157,-0.000365,  33.017
   567.4,-0.000288,-0.000295,0.006228,-0.000422,  33.040
   567.6,-0.000224,-0.000270,0.006136,-0.000539,  33.050
   567.8,-0.000194,-0.000238,0.005909,-0.000565,  33.058
   568.0,-0.000148,-0.000195,0.005422,-0.000565,  33.069
   568.2,-0.000106,-0.000160,0.004748,-0.000526,  33.071
   568.4,-0.000085,-0.000137,0.003882,-0.000487,  33.078
   568.6,-0.000053,-0.000111,0.002826,-0.000435,  33.080
   568.8,-0.000024,-0.000107,0.002741,-0.000383,  33.090
   569.0,-0.000045,-0.000113,0.002945,-0.000330,  33.093
   569.2,-0.000081,-0.000132,0.003427,-0.000278,  33.093
   569.4,-0.000130,-0.000162,0.003548,-0.000265,  33.081
   569.6,-0.000146,-0.000171,0.003592,-0.000252,  33.072
   569.8,-0.000146,-0.000168,0.003604,-0.000226,  33.041
   570.0,-0.000125,-0.000170,0.003661,-0.000239,  33.025
   570.2,-0.000115,-0.000163,0.003706,-0.000265,  33.001
   570.4,-0.000095,-0.000139,0.003744,-0.000291,  32.986
   570.6,-0.000061,-0.000110,0.003880,-0.000357,  32.981
   570.8,-0.000067,-0.000107,0.004055,-0.000370,  32.980
   571.0,-0.000077,-0.000100,0.004276,-0.000370,  32.977
   571.2,-0.000099,-0.000104,0.004477,-0.000370,  32.978
   571.4,-0.000172,-0.000158,0.004691,-0.000357,  32.976
   571.6,-0.000263,-0.000229,0.004919,-0.000357,  32.978
   571.8,-0.000386,-0.000329,0.004887,-0.000343,  32.975
   572.0,-0.000413,-0.000367,0.004740,-0.000357,  32.983
   572.2,-0.000389,-0.000379,0.004470,-0.000409,  32.995
   572.4,-0.000339,-0.000375,0.004154,-0.000461,  33.009
   572.6,-0.000311,-0.000357,0.003768,-0.000513,  33.025
   572.8,-0.000284,-0.000319,0.003285,-0.000578,  33.048
   573.0,-0.000241,-0.000268,0.002873,-0.000656,  33.054
   573.2,-0.000196,-0.000235,0.002455,-0.000630,  33.066
   573.4,-0.000164,-0.000195,0.002004,-0.000578,  33.072
   573.6,-0.000118,-0.000160,0.002035,-0.000487,  33.078
   573.8,-0.000079,-0.000139,0.002283,-0.000422,  33.087
   574.0,-0.000069,-0.000116,0.002737,-0.000370,  33.097
   574.2,-0.000059,-0.000097,0.002922,-0.000330,  33.100
   574.4,-0.000071,-0.000108,0.003069,-0.000278,  33.096
   574.6,-0.000088,-0.000132,0.003164,-0.000239,  33.089
   574.8,-0.000107,-0.000170,0.003253,-0.000213,  33.075
   575.0,-0.000140,-0.000172,0.003316,-0.000213,  33.054
   575.2,-0.000138,-0.000157,0.003361,-0.000252,  33.029
   575.4,-0.000121,-0.000136,0.003419,-0.000317,  33.006
   575.6,-0.000086,-0.000119,0.003478,-0.000343,  32.986
   575.8,-0.000067,-0.000088,0.003511,-0.000370,  32.971
   576.0,-0.000051,-0.000057,0.002543,-0.000370,  32.971
   576.2,-0.000016,-0.000072,0.001041,-0.000383,  32.970
   576.4,-0.000044,-0.000103,-0.000989,-0.000404,  32.967
   576.6,-0.000113,-0.000150,-0.001302,-0.000370,  32.958
   576.8,-0.000195,-0.000214,-0.001025,-0.000343,  32.955
   577.0,-0.000261,-0.000295,-0.000146,-0.000330,  32.953
   577.2,-0.000322,-0.000393,0.001313,-0.000330,  32.961
   577.4,-0.000386,-0.000408,0.001487,-0.000330,  32.972
   577.6,-0.000387,-0.000389,0.001486,-0.000370,  33.000
   577.8,-0.000342,-0.000333,0.001329,-0.000448,  33.017
   578.0,-0.000269,-0.000309,0.001752,-0.000565,  33.033
   578.2,-0.000234,-0.000268,0.002384,-0.000578,  33.049
   578.4,-0.000182,-0.000214,0.003226,-0.000578,  33.057
   578.6,-0.000135,-0.000184,0.003507,-0.000552,  33.067
   578.8,-0.000105,-0.000156,0.003627,-0.000500,  33.075
   579.0,-0.000068,-0.000135,0.003557,-0.000448,  33.078
   579.2,-0.000043,-0.000116,0.003533,-0.000383,  33.083
   579.4,-0.000061,-0.000116,0.003457,-0.000330,  33.087
   579.6,-0.000085,-0.000132,0.003304,-0.000278,  33.085
   579.8,-0.000138,-0.000149,0.003292,-0.000252,  33.075
   580.0,-0.000153,-0.000158,0.003305,-0.000226,  33.061
   580.2,-0.000143,-0.000160,0.003363,-0.000213,  33.041
   580.4,-0.000138,-0.000164,0.003331,-0.000213,  33.015
   580.6,-0.000130,-0.000158,0.003274,-0.000226,  32.986
   580.8,-0.000101,-0.000139,0.003178,-0.000278,  32.976
   581.0,-0.000076,-0.000115,0.003275,-0.000343,  32.967
   581.2,-0.000080,-0.000109,0.003463,-0.000357,  32.961
   581.4,-0.000088,-0.000096,0.003722,-0.000357,  32.956
   581.6,-0.000108,-0.000096,0.003904,-0.000357,  32.958
   581.8,-0.000176,-0.000143,0.004054,-0.000343,  32.959
   582.0,-0.000266,-0.000211,0.004210,-0.000330,  32.955
   582.2,-0.000379,-0.000309,0.004457,-0.000330,  32.954
   582.4,-0.000410,-0.000345,0.004704,-0.000343,  32.958
   582.6,-0.000413,-0.000363,0.004982,-0.000383,  32.977
   582.8,-0.000390,-0.000359,0.005151,-0.000435,  33.002
   583.0,-0.000337,-0.000340,0.005255,-0.000487,  33.016
   583.2,-0.000298,-0.000304,0.005307,-0.000565,  33.029
   583.4,-0.000251,-0.000245,0.005216,-0.000643,  33.048
   583.6,-0.000192,-0.000202,0.005021,-0.000617,  33.057
   583.8,-0.000157,-0.000166,0.004716,-0.000565,  33.068
   584.0,-0.000120,-0.000135,0.004541,-0.000461,  33.071
   584.2,-0.000080,-0.000107,0.004384,-0.000396,  33.079
   584.4,-0.000067,-0.000090,0.004228,-0.000343,  33.079
   584.6,-0.000062,-0.000080,0.004091,-0.000304,  33.085
   584.8,-0.000058,-0.000090,0.003974,-0.000252,  33.087
   585.0,-0.000076,-0.000113,0.003889,-0.000226,  33.082
   585.2,-0.000101,-0.000151,0.003760,-0.000200,  33.066
   585.4,-0.000130,-0.000158,0.003617,-0.000187,  33.049
   585.6,-0.000137,-0.000149,0.003469,-0.000187,  33.034
   585.8,-0.000129,-0.000130,0.003488,-0.000226,  33.009
   586.0,-0.000102,-0.000120,0.003566,-0.000265,  32.995
   586.2,-0.000092,-0.000096,0.003714,-0.000300,  32.989
   586.4,-0.000078,-0.000072,0.003805,-0.000291,  32.978
   586.6,-0.000058,-0.000086,0.003896,-0.000330,  32.969
   586.8,-0.000092,-0.000111,0.004007,-0.000330,  32.964
   587.0,-0.000146,-0.000156,0.004118,-0.000330,  32.960
   587.2,-0.000224,-0.000215,0.004267,-0.000330,  32.958
   587.4,-0.000292,-0.000292,0.004423,-0.000317,  32.958
   587.6,-0.000349,-0.000382,0.004605,-0.000317,  32.959
   587.8,-0.000422,-0.000412,0.004774,-0.000330,  32.973
   588.0,-0.000432,-0.000416,0.004937,-0.000370,  32.992
   588.2,-0.000397,-0.000395,0.005112,-0.000435,  33.012
   588.4,-0.000334,-0.000353,0.005145,-0.000539,  33.027
   588.6,-0.000299,-0.000328,0.005086,-0.000552,  33.045
   588.8,-0.000252,-0.000285,0.004995,-0.000565,  33.058
   589.0,-0.000195,-0.000240,0.004884,-0.000565,  33.066
   589.2,-0.000162,-0.000210,0.004709,-0.000526,  33.068
   589.4,-0.000126,-0.000176,0.004494,-0.000474,  33.074
   589.6,-0.000101,-0.000142,0.004325,-0.000422,  33.086
   589.8,-0.000113,-0.000138,0.004143,-0.000370,  33.094
   590.0,-0.000129,-0.000147,0.003955,-0.000330,  33.089
   590.2,-0.000176,-0.000167,0.003832,-0.000291,  33.085
   590.4,-0.000185,-0.000169,0.003728,-0.000252,  33.071
   590.6,-0.000185,-0.000173,0.003650,-0.000239,  33.049
   590.8,-0.000186,-0.000175,0.003553,-0.000226,  33.022
   591.0,-0.000168,-0.000164,0.003443,-0.000239,  33.003
   591.2,-0.000151,-0.000147,0.003301,-0.000278,  32.983
   591.4,-0.000132,-0.000122,0.003321,-0.000357,  32.972
   591.6,-0.000109,-0.000119,0.003425,-0.000370,  32.965
   591.8,-0.000113,-0.000108,0.003574,-0.000357,  32.954
   592.0,-0.000115,-0.000100,0.003717,-0.000357,  32.954
   592.2,-0.000132,-0.000140,0.003886,-0.000343,  32.952
   592.4,-0.000197,-0.000210,0.004074,-0.000330,  32.955
   592.6,-0.000280,-0.000298,0.004313,-0.000330,  32.956
   592.8,-0.000394,-0.000329,0.004579,-0.000343,  32.956
   593.0,-0.000420,-0.000350,0.004890,-0.000383,  32.963
   593.2,-0.000405,-0.000362,0.004981,-0.000435,  32.981
   593.4,-0.000363,-0.000347,0.004995,-0.000487,  33.004
   593.6,-0.000334,-0.000311,0.004917,-0.000565,  33.019
   593.8,-0.000280,-0.000254,0.004807,-0.000643,  33.037
   594.0,-0.000221,-0.000223,0.004651,-0.000656,  33.051
   594.2,-0.000186,-0.000189,0.004443,-0.000617,  33.063
   594.4,-0.000143,-0.000155,0.004274,-0.000565,  33.070
   594.6,-0.000115,-0.000126,0.004092,-0.000474,  33.073
   594.8,-0.000105,-0.000110,0.003891,-0.000457,  33.079
   595.0,-0.000092,-0.000101,0.003735,-0.000370,  33.086
   595.2,-0.000098,-0.000105,0.003605,-0.000317,  33.089
   595.4,-0.000119,-0.000128,0.003482,-0.000265,  33.082
   595.6,-0.000137,-0.000173,0.003372,-0.000239,  33.066
   595.8,-0.000176,-0.000179,0.003269,-0.000213,  33.048
   596.0,-0.000186,-0.000179,0.003159,-0.000213,  33.030
   596.2,-0.000165,-0.000174,0.003042,-0.000239,  33.000
   596.4,-0.000146,-0.000152,0.003029,-0.000291,  32.977
   596.6,-0.000138,-0.000140,0.003062,-0.000317,  32.972
   596.8,-0.000115,-0.000121,0.003139,-0.000330,  32.967
   597.0,-0.000101,-0.000100,0.003282,-0.000357,  32.958
   597.2,-0.000138,-0.000110,0.003443,-0.000343,  32.962
   597.4,-0.000185,-0.000138,0.003658,-0.000330,  32.961
   597.6,-0.000266,-0.000177,0.003884,-0.000330,  32.962
   597.8,-0.000325,-0.000230,0.004111,-0.000317,  32.961
   598.0,-0.000372,-0.000302,0.004370,-0.000330,  32.960
   598.2,-0.000428,-0.000398,0.004545,-0.000343,  32.971
   598.4,-0.000426,-0.000406,0.004695,-0.000383,  32.980
   598.6,-0.000380,-0.000387,0.004806,-0.000461,  33.008
   598.8,-0.000316,-0.000336,0.004806,-0.000552,  33.023
   599.0,-0.000286,-0.000308,0.004734,-0.000565,  33.040
   599.2,-0.000243,-0.000270,0.004579,-0.000565,  33.050
   599.4,-0.000207,-0.000229,0.003984,-0.000526,  33.062
   599.6,-0.000183,-0.000202,0.003126,-0.000487,  33.067
   599.8,-0.000148,-0.000177,0.002020,-0.000422,  33.076
   600.0,-0.000123,-0.000150,0.001474,-0.000357,  33.078
   600.2,-0.000126,-0.000149,0.001064,-0.000304,  33.081
   600.4,-0.000147,-0.000153,0.000813,-0.000265,  33.085
   600.6,-0.000177,-0.000177,0.000812,-0.000265,  33.080
   600.8,-0.000219,-0.000187,0.001010,-0.000239,  33.065
   601.0,-0.000228,-0.000194,0.001399,-0.000213,  33.057
   601.2,-0.000227,-0.000205,0.001559,-0.000200,  33.041
   601.4,-0.000224,-0.000196,0.001686,-0.000213,  33.014
   601.6,-0.000217,-0.000181,0.001782,-0.000278,  32.990
   601.8,-0.000193,-0.000153,0.002000,-0.000343,  32.977
   602.0,-0.000168,-0.000142,0.002276,-0.000357,  32.980
   602.2,-0.000169,-0.000133,0.002592,-0.000370,  32.974
   602.4,-0.000168,-0.000123,0.002837,-0.000370,  32.977
   602.6,-0.000172,-0.000168,0.003089,-0.000357,  32.975
   602.8,-0.000238,-0.000236,0.003316,-0.000357,  32.978
   603.0,-0.000324,-0.000324,0.003523,-0.000343,  32.975
   603.2,-0.000435,-0.000365,0.003686,-0.000357,  32.974
   603.4,-0.000470,-0.000396,0.003842,-0.000357,  32.978
   603.6,-0.000467,-0.000414,0.003836,-0.000396,  32.996
   603.8,-0.000429,-0.000406,0.003733,-0.000435,  33.010
   604.0,-0.000403,-0.000372,0.003540,-0.000522,  33.024
   604.2,-0.000358,-0.000320,0.003475,-0.000578,  33.045
   604.4,-0.000292,-0.000289,0.003410,-0.000669,  33.051
   604.6,-0.000257,-0.000253,0.003371,-0.000643,  33.062
   604.8,-0.000221,-0.000222,0.003344,-0.000591,  33.072
   605.0,-0.000183,-0.000196,0.003221,-0.000500,  33.072
   605.2,-0.000171,-0.000175,0.003026,-0.000435,  33.077
   605.4,-0.000162,-0.000160,0.002780,-0.000370,  33.085
   605.6,-0.000158,-0.000160,0.002650,-0.000330,  33.083
   605.8,-0.000176,-0.000171,0.002526,-0.000278,  33.078
