Run Name,50%
Run Date,08:38:01 PM   01-30-12
Method Name,Group 3 S12 RUN 6
Export Format Version, 1.00
Method ID, 1328
Points/Second, 1.00
Number of Records,    924
Offset from Run Start Time,00:00:00
Run End Time,00:15:23
Time,Second
QuadTec 1, (280.0 nm), AU
QuadTec 2, (260.0 nm), AU
Gradient Pump,<Not Selected>
QuadTec 3, (214.0 nm), AU
QuadTec 4, (405.0 nm), AU
Conductivity,mS/cm
Trace 6,<Not Available>
GP Pressure,<Not Selected>
Volume,<Not Selected>
Fraction,<Not Available>
Time,QuadTec 1,QuadTec 2,QuadTec 3,QuadTec 4,Conductivity
     0.0,-0.000744,-0.000483,0.002920,0.000000,  46.633
     1.0,0.000000,0.000000,0.000000,0.000000,  46.628
     2.0,0.000000,0.000000,0.000000,0.000000,  46.628
     3.0,0.000000,0.000000,0.000000,0.000000,  46.634
     4.0,0.000000,0.000020,0.000000,0.000000,  46.640
     5.0,0.000016,-0.000002,-0.000224,-0.000065,  46.642
     6.0,0.000011,-0.000010,-0.000253,-0.000087,  46.643
     7.0,0.000010,-0.000014,-0.000232,-0.000038,  46.644
     8.0,0.000018,-0.000001,-0.000214,-0.000100,  46.637
     9.0,0.000016,0.000002,-0.000156,-0.000122,  46.638
    10.0,0.000008,0.000003,-0.000143,-0.000095,  46.633
    11.0,0.000009,0.000001,-0.000201,-0.000131,  46.636
    12.0,0.000013,0.000007,-0.000170,-0.000068,  46.641
    13.0,0.000018,0.000012,-0.000216,-0.000082,  46.649
    14.0,0.000016,0.000000,-0.000175,-0.000144,  46.654
    15.0,0.000013,0.000004,-0.000172,-0.000068,  46.660
    16.0,0.000013,0.000014,-0.000190,-0.000068,  46.658
    17.0,0.000016,0.000004,-0.000179,-0.000104,  46.669
    18.0,0.000008,0.000003,-0.000103,-0.000117,  46.661
    19.0,0.000006,0.000003,-0.000140,-0.000117,  46.663
    20.0,0.000003,0.000009,-0.000180,-0.000152,  46.661
    21.0,-0.000000,-0.000005,-0.000266,-0.000104,  46.666
    22.0,0.000009,-0.000001,-0.000295,-0.000090,  46.666
    23.0,0.000005,0.000003,-0.000264,-0.000104,  46.677
    24.0,0.000008,0.000000,-0.000225,-0.000082,  46.678
    25.0,0.000009,0.000012,-0.000195,-0.000090,  46.681
    26.0,0.000009,0.000010,-0.000017,-0.000152,  46.683
    27.0,0.000003,0.000004,-0.000123,-0.000117,  46.682
    28.0,-0.000003,-0.000006,-0.000119,-0.000117,  46.681
    29.0,-0.000000,-0.000004,-0.000277,-0.000104,  46.680
    30.0,0.000009,0.000010,-0.000281,-0.000090,  46.681
    31.0,0.000004,0.000020,-0.000251,-0.000125,  46.689
    32.0,0.000002,0.000015,-0.000121,-0.000090,  46.695
    33.0,0.000007,0.000024,-0.000488,-0.000063,  46.706
    34.0,0.000007,0.000018,-0.001800,-0.000139,  46.711
    35.0,0.000003,0.000011,-0.000829,-0.000090,  46.716
    36.0,0.000018,0.000019,-0.000271,-0.000090,  46.713
    37.0,0.000013,0.000019,-0.000066,-0.000090,  46.714
    38.0,0.000018,0.000018,-0.000064,-0.000104,  46.716
    39.0,0.000015,0.000031,-0.000108,-0.000139,  46.740
    40.0,0.000009,0.000033,-0.000024,-0.000125,  46.743
    41.0,0.000015,0.000026,0.000036,-0.000134,  46.749
    42.0,0.000028,0.000033,0.000041,-0.000161,  46.758
    43.0,0.000015,0.000027,-0.000034,-0.000125,  46.766
    44.0,0.000010,0.000027,0.000029,-0.000090,  46.763
    45.0,-0.000004,0.000014,-0.000042,-0.000174,  46.774
    46.0,-0.000005,0.000007,-0.000063,-0.000139,  46.789
    47.0,-0.000001,0.000012,-0.000063,-0.000174,  46.796
    48.0,-0.000000,0.000009,-0.000113,-0.000139,  46.792
    49.0,0.000003,0.000013,-0.000054,-0.000161,  46.791
    50.0,0.000008,0.000013,-0.000054,-0.000147,  46.785
    51.0,-0.000000,0.000005,-0.000087,-0.000112,  46.777
    52.0,0.000003,0.000009,-0.000279,-0.000161,  46.800
    53.0,-0.000003,-0.000008,-0.000172,-0.000201,  46.787
    54.0,-0.000111,-0.000104,0.000322,-0.000260,  46.763
    55.0,-0.000118,-0.000103,0.000160,-0.000268,  46.761
    56.0,-0.000074,-0.000069,-0.000202,-0.000179,  46.754
    57.0,-0.000025,-0.000004,-0.000115,-0.000161,  46.753
    58.0,0.000064,0.000066,0.000027,-0.000120,  46.758
    59.0,0.000108,0.000139,0.000088,-0.000058,  46.764
    60.0,0.000131,0.000169,0.000123,-0.000080,  46.769
    61.0,0.000136,0.000168,0.000173,-0.000080,  46.767
    62.0,0.000136,0.000168,0.000029,-0.000045,  46.780
    63.0,0.000081,0.000187,-0.000076,-0.000045,  46.787
    64.0,0.000151,0.000195,0.000002,-0.000045,  46.795
    65.0,0.000166,0.000217,0.000090,-0.000053,  46.800
    66.0,0.000171,0.000218,0.000038,-0.000053,  46.807
    67.0,0.000181,0.000218,0.000092,-0.000004,  46.817
    68.0,0.000181,0.000232,0.000118,-0.000013,  46.824
    69.0,0.000173,0.000215,-0.001854,-0.000075,  46.845
    70.0,0.000181,0.000219,-0.000584,-0.000053,  46.848
    71.0,0.000176,0.000221,-0.000126,-0.000040,  46.852
    72.0,0.000187,0.000217,0.000021,-0.000040,  46.849
    73.0,0.000171,0.000225,0.000084,-0.000040,  46.848
    74.0,0.000179,0.000232,0.000195,-0.000088,  46.840
    75.0,0.000179,0.000217,0.000166,-0.000053,  46.838
    76.0,0.000163,0.000213,0.000087,-0.000040,  46.832
    77.0,0.000160,0.000209,0.000102,-0.000102,  46.833
    78.0,0.000159,0.000199,-0.001768,-0.000066,  46.837
    79.0,0.000131,0.000187,-0.000449,-0.000093,  46.836
    80.0,0.000138,0.000180,-0.000082,-0.000045,  46.838
    81.0,0.000141,0.000177,-0.000076,-0.000066,  46.841
    82.0,0.000152,0.000174,-0.000098,-0.000102,  46.842
    83.0,0.000138,0.000180,0.000060,-0.000066,  46.843
    84.0,0.000138,0.000178,0.000172,-0.000066,  46.848
    85.0,0.000167,0.000190,0.000453,-0.000102,  46.852
    86.0,0.000196,0.000212,0.000762,-0.000053,  46.852
    87.0,0.000264,0.000267,0.001399,-0.000040,  46.849
    88.0,0.000364,0.000345,0.002533,-0.000026,  46.853
    89.0,0.000561,0.000485,0.004161,-0.000013,  46.856
    90.0,0.000899,0.000709,0.006729,-0.000021,  46.861
    91.0,0.001401,0.001029,0.011291,0.000068,  46.861
    92.0,0.002140,0.001426,0.017425,0.000135,  46.857
    93.0,0.003155,0.002040,0.025815,0.000181,  46.861
    94.0,0.004242,0.002711,0.035491,0.000270,  46.859
    95.0,0.005319,0.003367,0.047336,0.000297,  46.856
    96.0,0.006596,0.004056,0.061465,0.000208,  46.859
    97.0,0.008228,0.004844,0.078418,0.000189,  46.853
    98.0,0.010275,0.005873,0.094397,0.000114,  46.853
    99.0,0.012748,0.007134,0.117640,0.000082,  46.854
   100.0,0.015733,0.008621,0.145006,0.000041,  46.859
   101.0,0.019396,0.010134,0.177673,-0.000013,  46.861
   102.0,0.023350,0.012217,0.212723,-0.000004,  46.869
   103.0,0.027878,0.014498,0.250522,-0.000053,  46.872
   104.0,0.032069,0.017283,0.296714,-0.000129,  46.878
   105.0,0.037807,0.020272,0.346016,-0.000107,  46.880
   106.0,0.044606,0.023873,0.402456,-0.000093,  46.878
   107.0,0.052613,0.028159,0.458212,-0.000120,  46.879
   108.0,0.061598,0.032930,0.534907,-0.000134,  46.884
   109.0,0.071723,0.037600,0.619974,-0.000169,  46.895
   110.0,0.083010,0.043140,0.715976,-0.000147,  46.894
   111.0,0.094411,0.049128,0.814157,-0.000134,  46.895
   112.0,0.107183,0.055760,0.922054,-0.000169,  46.894
   113.0,0.117797,0.062837,1.035214,-0.000120,  46.897
   114.0,0.132185,0.070463,1.160588,-0.000093,  46.895
   115.0,0.147680,0.078732,1.293381,-0.000080,  46.895
   116.0,0.164452,0.087645,1.402943,-0.000040,  46.897
   117.0,0.181927,0.096942,1.548629,-0.000061,  46.901
   118.0,0.200418,0.106109,1.695138,0.000028,  46.900
   119.0,0.218595,0.114500,1.834797,0.000082,  46.894
   120.0,0.236744,0.124133,1.965510,0.000073,  46.894
   121.0,0.255268,0.133950,2.087241,0.000176,  46.886
   122.0,0.271194,0.143743,2.195090,0.000173,  46.877
   123.0,0.288784,0.153714,2.288835,0.000240,  46.867
   124.0,0.307875,0.163917,2.367162,0.000329,  46.854
   125.0,0.326983,0.174061,2.418138,0.000388,  46.843
   126.0,0.345936,0.184150,2.469596,0.000491,  46.828
   127.0,0.364480,0.193805,2.508116,0.000536,  46.812
   128.0,0.381471,0.201120,2.539946,0.000631,  46.787
   129.0,0.398021,0.210157,2.563553,0.000760,  46.772
   130.0,0.413751,0.218617,2.579999,0.000833,  46.753
   131.0,0.427779,0.226787,2.594593,0.000927,  46.733
   132.0,0.440542,0.234655,2.609054,0.001070,  46.710
   133.0,0.454721,0.242413,2.618053,0.001130,  46.674
   134.0,0.468074,0.249600,2.621149,0.001205,  46.652
   135.0,0.480883,0.256535,2.630516,0.001265,  46.622
   136.0,0.492043,0.262630,2.633637,0.001318,  46.595
   137.0,0.502011,0.266914,2.639981,0.001394,  46.543
   138.0,0.511413,0.272291,2.646458,0.001426,  46.501
   139.0,0.519723,0.276942,2.649682,0.001494,  46.463
   140.0,0.525745,0.281220,2.656404,0.001570,  46.398
   141.0,0.532767,0.285168,2.656372,0.001562,  46.360
   142.0,0.539265,0.288950,2.659730,0.001610,  46.286
   143.0,0.545276,0.292406,2.666506,0.001589,  46.213
   144.0,0.550476,0.295417,2.663142,0.001589,  46.146
   145.0,0.554682,0.297738,2.669934,0.001570,  46.063
   146.0,0.558853,0.299906,2.669966,0.001537,  45.975
   147.0,0.562689,0.302271,2.669955,0.001435,  45.870
   148.0,0.566411,0.304507,2.669987,0.001335,  45.757
   149.0,0.569845,0.306958,2.676931,0.001200,  45.633
   150.0,0.573741,0.309555,2.676915,0.000989,  45.487
   151.0,0.578552,0.312525,2.680420,0.000809,  45.305
   152.0,0.584432,0.316000,2.680426,0.000518,  45.121
   153.0,0.590368,0.319613,2.683987,0.000257,  44.905
   154.0,0.597010,0.323481,2.691176,-0.000026,  44.656
   155.0,0.605079,0.327477,2.691160,-0.000344,  44.401
   156.0,0.614229,0.332899,2.698444,-0.000564,  44.118
   157.0,0.624277,0.339053,2.702193,-0.000739,  43.810
   158.0,0.634749,0.345887,2.705900,-0.000854,  43.506
   159.0,0.645429,0.353566,2.713421,-0.000846,  43.198
   160.0,0.658367,0.361865,2.717237,-0.000806,  42.907
   161.0,0.671598,0.370349,2.721107,-0.000685,  42.637
   162.0,0.684259,0.378575,2.728933,-0.000567,  42.417
   163.0,0.696357,0.386602,2.732926,-0.000339,  42.229
   164.0,0.707888,0.393800,2.740990,-0.000075,  42.084
   165.0,0.718137,0.399894,2.740958,0.000216,  42.005
   166.0,0.726988,0.406281,2.745079,0.000410,  41.994
   167.0,0.734159,0.411891,2.753356,0.000647,  42.036
   168.0,0.738920,0.416505,2.753319,0.000890,  42.142
   169.0,0.743683,0.420355,2.753330,0.001011,  42.310
   170.0,0.746550,0.423046,2.753308,0.001187,  42.518
   171.0,0.748367,0.425223,2.753362,0.001259,  42.749
   172.0,0.749096,0.426452,2.757504,0.001402,  43.024
   173.0,0.748512,0.427156,2.761715,0.001510,  43.310
   174.0,0.746732,0.427069,2.757531,0.001556,  43.608
   175.0,0.743544,0.426166,2.757526,0.001645,  43.917
   176.0,0.739930,0.424564,2.761752,0.001700,  44.230
   177.0,0.735073,0.422621,2.757510,0.001754,  44.525
   178.0,0.729182,0.420068,2.757547,0.001767,  44.804
   179.0,0.722981,0.417163,2.753367,0.001705,  45.069
   180.0,0.716763,0.414319,2.753351,0.001727,  45.304
   181.0,0.710257,0.411793,2.749174,0.001713,  45.518
   182.0,0.702896,0.408299,2.745073,0.001691,  45.714
   183.0,0.694628,0.404188,2.749195,0.001713,  45.894
   184.0,0.686854,0.399509,2.736998,0.001713,  46.036
   185.0,0.678080,0.394683,2.736950,0.001678,  46.160
   186.0,0.668265,0.389512,2.732937,0.001686,  46.269
   187.0,0.658493,0.384214,2.725051,0.001673,  46.361
   188.0,0.648971,0.379216,2.721113,0.001659,  46.441
   189.0,0.639723,0.374377,2.725003,0.001618,  46.498
   190.0,0.630045,0.370187,2.717263,0.001570,  46.551
   191.0,0.619951,0.364639,2.713490,0.001551,  46.595
   192.0,0.609113,0.358760,2.709665,0.001564,  46.623
   193.0,0.598790,0.352576,2.702199,0.001475,  46.668
   194.0,0.588992,0.346361,2.698497,0.001532,  46.690
   195.0,0.577507,0.339945,2.694789,0.001483,  46.713
   196.0,0.566302,0.333720,2.687551,0.001478,  46.734
   197.0,0.555724,0.327860,2.684009,0.001402,  46.747
   198.0,0.545614,0.322144,2.676958,0.001327,  46.782
   199.0,0.534943,0.317327,2.669998,0.001357,  46.802
   200.0,0.523860,0.310959,2.670025,0.001321,  46.814
   201.0,0.512096,0.304361,2.656506,0.001286,  46.828
   202.0,0.500785,0.297603,2.649987,0.001308,  46.832
   203.0,0.491111,0.290674,2.636969,0.001294,  46.837
   204.0,0.479135,0.284001,2.627413,0.001267,  46.845
   205.0,0.468030,0.277744,2.615048,0.001227,  46.840
   206.0,0.457261,0.271551,2.603089,0.001178,  46.840
   207.0,0.446613,0.265304,2.588562,0.001187,  46.840
   208.0,0.435992,0.260342,2.577271,0.001173,  46.838
   209.0,0.424783,0.253904,2.558186,0.001084,  46.844
   210.0,0.413548,0.247376,2.539984,0.001084,  46.841
   211.0,0.402464,0.240919,2.515139,0.001057,  46.855
   212.0,0.393774,0.234414,2.489394,0.001030,  46.855
   213.0,0.382803,0.228148,2.460770,0.001025,  46.871
   214.0,0.372486,0.222105,2.429940,0.001025,  46.876
   215.0,0.362543,0.216351,2.408684,0.000957,  46.882
   216.0,0.352602,0.210631,2.377725,0.000957,  46.885
   217.0,0.342705,0.205878,2.339069,0.000895,  46.885
   218.0,0.332569,0.199824,2.300589,0.000903,  46.885
   219.0,0.322593,0.193936,2.257178,0.000876,  46.882
   220.0,0.313182,0.188026,2.209289,0.000841,  46.874
   221.0,0.304749,0.182273,2.162972,0.000849,  46.876
   222.0,0.295441,0.176822,2.115252,0.000822,  46.872
   223.0,0.286565,0.171549,2.073155,0.000795,  46.876
   224.0,0.277891,0.166424,2.030059,0.000768,  46.874
   225.0,0.269425,0.161336,1.982264,0.000720,  46.879
   226.0,0.260786,0.157287,1.931557,0.000715,  46.875
   227.0,0.252117,0.152042,1.876618,0.000715,  46.882
   228.0,0.243686,0.147047,1.824419,0.000652,  46.881
   229.0,0.235580,0.142058,1.769105,0.000688,  46.875
   230.0,0.229059,0.137263,1.715761,0.000674,  46.875
   231.0,0.221324,0.132766,1.663848,0.000620,  46.874
   232.0,0.214109,0.128454,1.615961,0.000607,  46.875
   233.0,0.206853,0.124169,1.575332,0.000572,  46.875
   234.0,0.199892,0.119963,1.528605,0.000566,  46.873
   235.0,0.192791,0.116600,1.478794,0.000566,  46.878
   236.0,0.185852,0.112388,1.428352,0.000518,  46.883
   237.0,0.178909,0.108239,1.378541,0.000539,  46.879
   238.0,0.173193,0.104301,1.330105,0.000499,  46.881
   239.0,0.167351,0.100535,1.284254,0.000437,  46.880
   240.0,0.161407,0.096985,1.240580,0.000472,  46.877
   241.0,0.155647,0.093512,1.199975,0.000410,  46.878
   242.0,0.150040,0.090179,1.166867,0.000418,  46.874
   243.0,0.144516,0.086976,1.125499,0.000405,  46.872
   244.0,0.139016,0.084277,1.084453,0.000356,  46.871
   245.0,0.133591,0.081017,1.043821,0.000378,  46.870
   246.0,0.128335,0.077794,1.003213,0.000378,  46.866
   247.0,0.124360,0.074802,0.964962,0.000356,  46.871
   248.0,0.119574,0.071951,0.929365,0.000351,  46.862
   249.0,0.115040,0.069266,0.896684,0.000280,  46.844
   250.0,0.110562,0.066560,0.868702,0.000289,  46.839
   251.0,0.106268,0.064070,0.836536,0.000253,  46.838
   252.0,0.102032,0.061996,0.803817,0.000253,  46.835
   253.0,0.097850,0.059426,0.771847,0.000310,  46.825
   254.0,0.093755,0.056935,0.739777,0.000310,  46.827
   255.0,0.090701,0.054599,0.710048,0.000235,  46.834
   256.0,0.086983,0.052422,0.681631,0.000283,  46.837
   257.0,0.083520,0.050358,0.655350,0.000283,  46.839
   258.0,0.080197,0.048334,0.633253,0.000257,  46.844
   259.0,0.077004,0.046416,0.610775,0.000243,  46.851
   260.0,0.073851,0.044774,0.586836,0.000208,  46.863
   261.0,0.070763,0.043046,0.562583,0.000194,  46.859
   262.0,0.067761,0.041221,0.539385,0.000159,  46.864
   263.0,0.065018,0.039443,0.516266,0.000159,  46.888
   264.0,0.062593,0.037765,0.494501,0.000167,  46.900
   265.0,0.059991,0.036200,0.474064,0.000132,  46.906
   266.0,0.057513,0.034718,0.455229,0.000154,  46.914
   267.0,0.055099,0.033263,0.440131,0.000105,  46.925
   268.0,0.052779,0.031868,0.422110,0.000092,  46.942
   269.0,0.050531,0.030794,0.404718,0.000149,  46.952
   270.0,0.048311,0.029428,0.387163,0.000162,  46.970
   271.0,0.046147,0.028125,0.369830,0.000092,  46.986
   272.0,0.044163,0.026889,0.353992,0.000100,  47.015
   273.0,0.042579,0.025728,0.339042,0.000065,  47.025
   274.0,0.040743,0.024643,0.324771,0.000100,  47.029
   275.0,0.039014,0.023594,0.312142,0.000100,  47.038
   276.0,0.037345,0.022598,0.300743,0.000065,  47.043
   277.0,0.035708,0.021675,0.288195,0.000087,  47.051
   278.0,0.034121,0.020840,0.275561,0.000051,  47.060
   279.0,0.032590,0.019907,0.263490,0.000025,  47.070
   280.0,0.031129,0.018999,0.251456,0.000082,  47.080
   281.0,0.029966,0.018140,0.240466,0.000082,  47.088
   282.0,0.028619,0.017334,0.229962,0.000068,  47.093
   283.0,0.027379,0.016573,0.220956,0.000068,  47.116
   284.0,0.026168,0.015855,0.212411,-0.000002,  47.126
   285.0,0.025018,0.015153,0.203536,0.000019,  47.134
   286.0,0.023915,0.014618,0.194715,-0.000016,  47.139
   287.0,0.022829,0.013962,0.185787,-0.000043,  47.149
   288.0,0.021763,0.013311,0.177584,-0.000007,  47.157
   289.0,0.020882,0.012701,0.169585,-0.000043,  47.158
   290.0,0.019986,0.012117,0.161966,-0.000043,  47.159
   291.0,0.019080,0.011581,0.154762,0.000001,  47.164
   292.0,0.018245,0.011059,0.148349,-0.000021,  47.163
   293.0,0.017432,0.010579,0.143042,0.000001,  47.170
   294.0,0.016643,0.010121,0.136727,0.000014,  47.179
   295.0,0.015887,0.009748,0.130449,-0.000061,  47.180
   296.0,0.015146,0.009295,0.124722,-0.000026,  47.186
   297.0,0.014430,0.008846,0.119033,-0.000013,  47.205
   298.0,0.013903,0.008449,0.113590,-0.000040,  47.210
   299.0,0.013265,0.008064,0.108642,-0.000053,  47.208
   300.0,0.012671,0.007720,0.103843,-0.000040,  47.205
   301.0,0.012107,0.007371,0.099752,-0.000040,  47.196
   302.0,0.011566,0.007041,0.095942,-0.000040,  47.184
   303.0,0.011039,0.006771,0.091811,-0.000075,  47.181
   304.0,0.010533,0.006480,0.087696,-0.000040,  47.154
   305.0,0.010017,0.006171,0.083627,-0.000040,  47.155
   306.0,0.009590,0.005885,0.079916,-0.000075,  47.151
   307.0,0.009203,0.005616,0.076188,-0.000040,  47.154
   308.0,0.008787,0.005375,0.072887,-0.000040,  47.155
   309.0,0.008406,0.005137,0.070110,-0.000053,  47.161
   310.0,0.008036,0.004917,0.067477,-0.000110,  47.164
   311.0,0.007677,0.004711,0.064619,-0.000123,  47.156
   312.0,0.007334,0.004509,0.061850,-0.000075,  47.148
   313.0,0.006998,0.004321,0.058903,-0.000083,  47.146
   314.0,0.006663,0.004127,0.056345,-0.000110,  47.147
   315.0,0.006373,0.003937,0.053185,-0.000088,  47.141
   316.0,0.006124,0.003773,0.051462,-0.000110,  47.141
   317.0,0.005847,0.003602,0.049483,-0.000088,  47.134
   318.0,0.005598,0.003449,0.047498,-0.000088,  47.127
   319.0,0.005350,0.003290,0.045770,-0.000123,  47.127
   320.0,0.005108,0.003150,0.043738,-0.000102,  47.119
   321.0,0.004865,0.003033,0.041768,-0.000137,  47.124
   322.0,0.004643,0.002893,0.039893,-0.000123,  47.120
   323.0,0.004434,0.002769,0.038181,-0.000088,  47.115
   324.0,0.004255,0.002646,0.036655,-0.000123,  47.115
   325.0,0.004084,0.002532,0.035182,-0.000137,  47.114
   326.0,0.003902,0.002421,0.033670,-0.000102,  47.115
   327.0,0.003723,0.002324,0.032366,-0.000137,  47.112
   328.0,0.003573,0.002227,0.031023,-0.000102,  47.112
   329.0,0.003419,0.002139,0.029766,-0.000137,  47.116
   330.0,0.003279,0.002062,0.028620,-0.000150,  47.124
   331.0,0.003120,0.001962,0.027445,-0.000080,  47.122
   332.0,0.002980,0.001880,0.026228,-0.000080,  47.122
   333.0,0.002853,0.001799,0.023165,-0.000115,  47.120
   334.0,0.002748,0.001712,0.023341,-0.000080,  47.123
   335.0,0.002630,0.001647,0.022912,-0.000080,  47.125
   336.0,0.002519,0.001578,0.022297,-0.000107,  47.133
   337.0,0.002411,0.001517,0.021534,-0.000080,  47.136
   338.0,0.002313,0.001471,0.020770,-0.000115,  47.135
   339.0,0.002221,0.001416,0.019854,-0.000080,  47.129
   340.0,0.002125,0.001373,0.018894,-0.000080,  47.136
   341.0,0.002035,0.001316,0.018292,-0.000115,  47.122
   342.0,0.001975,0.001266,0.017682,-0.000080,  47.111
   343.0,0.001890,0.001212,0.017051,-0.000080,  47.109
   344.0,0.001819,0.001167,0.016374,-0.000080,  47.099
   345.0,0.001737,0.001112,0.015887,-0.000080,  47.076
   346.0,0.001668,0.001064,0.015087,-0.000115,  47.048
   347.0,0.001592,0.001024,0.014571,-0.000080,  47.034
   348.0,0.001518,0.000985,0.013999,-0.000080,  46.990
   349.0,0.001452,0.000941,0.013417,-0.000115,  46.977
   350.0,0.001392,0.000903,0.012912,-0.000080,  46.961
   351.0,0.001347,0.000871,0.012434,-0.000080,  46.944
   352.0,0.001292,0.000832,0.011923,-0.000093,  46.936
   353.0,0.001234,0.000801,0.011504,-0.000093,  46.934
   354.0,0.001185,0.000777,0.011126,-0.000150,  46.928
   355.0,0.001146,0.000745,0.010787,-0.000142,  46.918
   356.0,0.001099,0.000725,0.010272,-0.000177,  46.926
   357.0,0.001057,0.000701,0.009893,-0.000164,  46.928
   358.0,0.001017,0.000665,0.009551,-0.000129,  46.923
   359.0,0.000983,0.000644,0.009279,-0.000150,  46.928
   360.0,0.000936,0.000622,0.008970,-0.000150,  46.932
   361.0,0.000904,0.000601,0.008649,-0.000129,  46.930
   362.0,0.000871,0.000592,0.008207,-0.000150,  46.932
   363.0,0.000853,0.000575,0.007968,-0.000129,  46.930
   364.0,0.000828,0.000555,0.006607,-0.000150,  46.933
   365.0,0.000813,0.000543,0.007090,-0.000150,  46.934
   366.0,0.000782,0.000521,0.007154,-0.000129,  46.941
   367.0,0.000752,0.000522,0.007047,-0.000150,  46.944
   368.0,0.000721,0.000506,0.006926,-0.000150,  46.951
   369.0,0.000710,0.000499,0.006741,-0.000115,  46.960
   370.0,0.000691,0.000486,0.006474,-0.000150,  46.965
   371.0,0.000675,0.000477,0.006309,-0.000102,  46.970
   372.0,0.000660,0.000459,0.006169,-0.000137,  46.976
   373.0,0.000652,0.000463,0.006107,-0.000123,  46.982
   374.0,0.000631,0.000447,0.005859,-0.000088,  46.991
   375.0,0.000609,0.000438,0.005767,-0.000110,  47.004
   376.0,0.000594,0.000426,0.003655,-0.000123,  47.008
   377.0,0.000569,0.000411,0.004754,-0.000088,  47.021
   378.0,0.000554,0.000406,0.005104,-0.000137,  47.016
   379.0,0.000540,0.000401,0.004994,-0.000102,  47.021
   380.0,0.000525,0.000385,0.004993,-0.000137,  47.017
   381.0,0.000506,0.000370,0.004909,-0.000137,  47.013
   382.0,0.000495,0.000370,0.004732,-0.000102,  47.018
   383.0,0.000476,0.000353,0.004505,-0.000137,  47.021
   384.0,0.000455,0.000350,0.004486,-0.000164,  47.022
   385.0,0.000439,0.000335,0.002475,-0.000129,  47.017
   386.0,0.000428,0.000330,0.003729,-0.000150,  47.013
   387.0,0.000402,0.000318,0.003883,-0.000115,  47.012
   388.0,0.000403,0.000305,0.003917,-0.000080,  47.008
   389.0,0.000392,0.000305,0.003900,-0.000115,  47.002
   390.0,0.000389,0.000295,0.003819,-0.000066,  46.998
   391.0,0.000374,0.000294,0.003662,-0.000093,  47.005
   392.0,0.000363,0.000289,0.003539,-0.000115,  47.009
   393.0,0.000365,0.000277,0.003388,-0.000080,  47.014
   394.0,0.000361,0.000282,0.003376,-0.000088,  47.020
   395.0,0.000353,0.000281,0.003407,-0.000164,  47.028
   396.0,0.000337,0.000266,0.003322,-0.000115,  47.033
   397.0,0.000314,0.000255,0.003236,-0.000150,  47.044
   398.0,0.000315,0.000251,0.003130,-0.000115,  47.062
   399.0,0.000313,0.000244,0.003033,-0.000080,  47.094
   400.0,0.000308,0.000250,0.002995,-0.000115,  47.107
   401.0,0.000300,0.000244,0.002814,-0.000107,  47.120
   402.0,0.000284,0.000236,0.002774,-0.000093,  47.120
   403.0,0.000276,0.000225,0.002733,-0.000129,  47.125
   404.0,0.000268,0.000224,0.002635,-0.000107,  47.117
   405.0,0.000263,0.000219,0.002638,-0.000093,  47.111
   406.0,0.000266,0.000217,0.002623,-0.000093,  47.111
   407.0,0.000267,0.000223,0.002562,-0.000080,  47.111
   408.0,0.000266,0.000224,0.002514,-0.000115,  47.108
   409.0,0.000274,0.000221,0.002282,-0.000080,  47.108
   410.0,0.000271,0.000226,0.002326,-0.000080,  47.106
   411.0,0.000271,0.000234,0.002371,-0.000115,  47.099
   412.0,0.000263,0.000234,0.002423,-0.000072,  47.093
   413.0,0.000253,0.000219,0.002403,-0.000107,  47.080
   414.0,0.000239,0.000217,0.002351,-0.000107,  47.074
   415.0,0.000232,0.000210,0.002273,-0.000093,  47.078
   416.0,0.000216,0.000200,0.002162,-0.000115,  47.073
   417.0,0.000218,0.000191,0.000922,-0.000093,  47.082
   418.0,0.000218,0.000201,0.001700,-0.000080,  47.088
   419.0,0.000234,0.000201,0.001699,-0.000115,  47.092
   420.0,0.000242,0.000206,0.001916,-0.000080,  47.098
   421.0,0.000244,0.000225,-0.000005,-0.000040,  47.101
   422.0,0.000247,0.000227,0.001488,-0.000088,  47.109
   423.0,0.000242,0.000226,0.001757,-0.000053,  47.112
   424.0,0.000233,0.000213,0.001905,-0.000088,  47.128
   425.0,0.000229,0.000216,0.001999,-0.000066,  47.129
   426.0,0.000224,0.000212,0.001995,-0.000066,  47.141
   427.0,0.000216,0.000212,0.002012,-0.000102,  47.149
   428.0,0.000214,0.000195,0.001884,-0.000066,  47.159
   429.0,0.000206,0.000187,0.001669,-0.000080,  47.167
   430.0,0.000210,0.000184,0.001798,-0.000129,  47.171
   431.0,0.000203,0.000175,0.001660,-0.000080,  47.196
   432.0,0.000195,0.000176,0.001627,-0.000115,  47.195
   433.0,0.000196,0.000170,0.001568,-0.000080,  47.198
   434.0,0.000188,0.000171,0.001543,-0.000080,  47.205
   435.0,0.000174,0.000172,0.001582,-0.000150,  47.206
   436.0,0.000177,0.000173,0.001524,-0.000115,  47.212
   437.0,0.000166,0.000163,0.001512,-0.000150,  47.210
   438.0,0.000160,0.000166,0.001436,-0.000150,  47.199
   439.0,0.000155,0.000160,0.001386,-0.000115,  47.187
   440.0,0.000150,0.000155,0.000234,-0.000137,  47.182
   441.0,0.000153,0.000147,0.000954,-0.000115,  47.179
   442.0,0.000151,0.000154,0.000710,-0.000093,  47.182
   443.0,0.000139,0.000148,0.000134,-0.000115,  47.177
   444.0,0.000145,0.000149,0.000787,-0.000093,  47.176
   445.0,0.000142,0.000147,0.001032,-0.000080,  47.165
   446.0,0.000142,0.000149,0.001075,-0.000115,  47.159
   447.0,0.000138,0.000151,0.001125,-0.000093,  47.149
   448.0,0.000129,0.000144,0.001060,-0.000080,  47.126
   449.0,0.000138,0.000139,0.000919,-0.000093,  47.119
   450.0,0.000143,0.000139,0.001031,-0.000093,  47.116
   451.0,0.000141,0.000143,0.001046,-0.000115,  47.115
   452.0,0.000133,0.000132,0.001007,-0.000093,  47.108
   453.0,0.000128,0.000135,0.000992,-0.000080,  47.109
   454.0,0.000120,0.000131,0.000894,-0.000080,  47.102
   455.0,0.000128,0.000134,0.000859,-0.000093,  47.107
   456.0,0.000128,0.000132,0.000839,-0.000080,  47.107
   457.0,0.000133,0.000137,0.000861,-0.000080,  47.105
   458.0,0.000141,0.000145,0.000781,-0.000080,  47.105
   459.0,0.000124,0.000141,0.000807,-0.000115,  47.110
   460.0,0.000124,0.000132,0.000845,-0.000080,  47.118
   461.0,0.000123,0.000128,0.000780,-0.000080,  47.119
   462.0,0.000125,0.000124,0.000741,-0.000115,  47.115
   463.0,0.000135,0.000140,0.000727,-0.000080,  47.113
   464.0,0.000131,0.000144,0.000731,-0.000102,  47.111
   465.0,0.000134,0.000146,0.000772,-0.000123,  47.114
   466.0,0.000134,0.000141,0.000731,-0.000102,  47.113
   467.0,0.000130,0.000144,0.000606,-0.000137,  47.110
   468.0,0.000136,0.000135,0.000557,-0.000088,  47.107
   469.0,0.000122,0.000131,0.000595,-0.000123,  47.105
   470.0,0.000116,0.000134,0.000659,-0.000137,  47.110
   471.0,0.000117,0.000117,0.000592,-0.000102,  47.105
   472.0,0.000101,0.000122,0.000637,-0.000115,  47.105
   473.0,0.000089,0.000115,0.000578,-0.000115,  47.106
   474.0,0.000098,0.000123,0.000551,-0.000080,  47.109
   475.0,0.000098,0.000116,0.000514,-0.000115,  47.109
   476.0,0.000098,0.000124,0.000315,-0.000093,  47.110
   477.0,0.000099,0.000113,0.000438,-0.000080,  47.109
   478.0,0.000092,0.000112,0.000194,-0.000115,  47.107
   479.0,0.000082,0.000100,0.000273,-0.000093,  47.110
   480.0,0.000068,0.000098,0.000292,-0.000093,  47.113
   481.0,0.000066,0.000092,0.000240,-0.000129,  47.115
   482.0,0.000057,0.000086,0.000239,-0.000107,  47.114
   483.0,0.000063,0.000092,0.000147,-0.000093,  47.105
   484.0,0.000074,0.000098,0.000192,-0.000093,  47.098
   485.0,0.000080,0.000106,0.000188,-0.000080,  47.093
   486.0,0.000079,0.000107,0.000214,-0.000115,  47.086
   487.0,0.000091,0.000133,0.000243,-0.000080,  47.072
   488.0,0.000090,0.000112,0.000196,-0.000080,  47.061
   489.0,0.000086,0.000110,0.000211,-0.000115,  47.059
   490.0,0.000088,0.000113,0.000250,-0.000080,  47.044
   491.0,0.000088,0.000109,0.000147,-0.000080,  47.034
   492.0,0.000096,0.000109,0.000194,-0.000080,  47.039
   493.0,0.000096,0.000115,0.000271,-0.000080,  47.041
   494.0,0.000088,0.000114,0.000388,-0.000150,  47.041
   495.0,0.000088,0.000109,0.000278,-0.000115,  47.044
   496.0,0.000082,0.000104,0.000166,-0.000150,  47.039
   497.0,0.000076,0.000104,-0.001378,-0.000150,  47.032
   498.0,0.000093,0.000114,-0.000348,-0.000129,  47.006
   499.0,0.000093,0.000117,0.000005,-0.000150,  46.996
   500.0,0.000085,0.000110,0.000150,-0.000107,  46.995
   501.0,0.000088,0.000108,0.000180,-0.000093,  46.993
   502.0,0.000080,0.000111,0.000126,-0.000115,  46.996
   503.0,0.000086,0.000102,0.000169,-0.000080,  46.993
   504.0,0.000082,0.000108,0.000100,-0.000080,  46.986
   505.0,0.000082,0.000105,0.000137,-0.000115,  46.995
   506.0,0.000083,0.000108,0.000044,-0.000129,  47.000
   507.0,0.000075,0.000103,0.000027,-0.000150,  47.003
   508.0,0.000063,0.000099,0.000060,-0.000150,  47.007
   509.0,0.000072,0.000098,0.000054,-0.000129,  47.018
   510.0,0.000068,0.000103,0.000127,-0.000150,  47.021
   511.0,0.000067,0.000100,0.000071,-0.000129,  47.029
   512.0,0.000067,0.000097,-0.000007,-0.000150,  47.033
   513.0,0.000067,0.000094,0.000023,-0.000150,  47.056
   514.0,0.000056,0.000087,-0.000029,-0.000129,  47.060
   515.0,0.000059,0.000094,0.000014,-0.000150,  47.066
   516.0,0.000053,0.000094,0.000025,-0.000150,  47.075
   517.0,0.000061,0.000101,0.000052,-0.000115,  47.085
   518.0,0.000068,0.000106,0.000016,-0.000137,  47.096
   519.0,0.000077,0.000103,-0.000029,-0.000115,  47.097
   520.0,0.000074,0.000106,-0.000721,-0.000137,  47.101
   521.0,0.000070,0.000116,-0.001335,-0.000164,  47.100
   522.0,0.000077,0.000103,-0.000500,-0.000093,  47.094
   523.0,0.000070,0.000095,-0.000402,-0.000080,  47.102
   524.0,0.000070,0.000092,-0.000202,-0.000115,  47.105
   525.0,0.000071,0.000097,-0.000207,-0.000093,  47.095
   526.0,0.000062,0.000091,-0.000262,-0.000093,  47.095
   527.0,0.000068,0.000090,-0.000167,-0.000093,  47.099
   528.0,0.000057,0.000088,-0.000129,-0.000080,  47.096
   529.0,0.000062,0.000093,-0.000349,-0.000115,  47.098
   530.0,0.000070,0.000104,-0.000126,-0.000093,  47.105
   531.0,0.000077,0.000111,-0.000105,-0.000080,  47.111
   532.0,0.000084,0.000120,-0.000100,-0.000115,  47.111
   533.0,0.000082,0.000119,-0.000100,-0.000080,  47.115
   534.0,0.000088,0.000115,-0.000026,-0.000080,  47.113
   535.0,0.000084,0.000120,-0.000056,-0.000080,  47.111
   536.0,0.000084,0.000113,-0.000006,-0.000080,  47.106
   537.0,0.000079,0.000113,0.000048,-0.000115,  47.101
   538.0,0.000082,0.000119,0.000020,-0.000080,  47.093
   539.0,0.000079,0.000119,-0.001094,-0.000080,  47.086
   540.0,0.000068,0.000110,-0.000297,-0.000115,  47.086
   541.0,0.000072,0.000101,-0.000115,-0.000093,  47.080
   542.0,0.000061,0.000102,-0.000094,-0.000080,  47.070
   543.0,0.000065,0.000095,-0.000088,-0.000115,  47.065
   544.0,0.000062,0.000094,-0.000118,-0.000093,  47.070
   545.0,0.000062,0.000096,-0.000166,-0.000115,  47.069
   546.0,0.000072,0.000093,-0.000300,-0.000080,  47.067
   547.0,0.000057,0.000087,-0.000203,-0.000080,  47.081
   548.0,0.000060,0.000097,-0.000175,-0.000115,  47.082
   549.0,0.000074,0.000095,-0.000127,-0.000093,  47.086
   550.0,0.000068,0.000107,-0.000149,-0.000080,  47.089
   551.0,0.000071,0.000102,-0.000198,-0.000115,  47.093
   552.0,0.000076,0.000110,-0.000155,-0.000080,  47.095
   553.0,0.000069,0.000108,-0.000246,-0.000066,  47.114
   554.0,0.000069,0.000105,-0.000192,-0.000080,  47.110
   555.0,0.000070,0.000108,-0.000213,-0.000080,  47.119
   556.0,0.000064,0.000104,-0.000170,-0.000115,  47.120
   557.0,0.000056,0.000102,-0.000295,-0.000093,  47.125
   558.0,0.000051,0.000097,-0.000230,-0.000080,  47.124
   559.0,0.000045,0.000093,-0.000393,-0.000115,  47.122
   560.0,0.000065,0.000107,-0.000303,-0.000080,  47.122
   561.0,0.000067,0.000112,-0.000268,-0.000053,  47.116
   562.0,0.000070,0.000102,-0.000305,-0.000066,  47.109
   563.0,0.000062,0.000099,-0.000236,-0.000150,  47.106
   564.0,0.000068,0.000100,-0.000244,-0.000150,  47.095
   565.0,0.000051,0.000097,-0.000258,-0.000129,  47.092
   566.0,0.000048,0.000085,-0.000258,-0.000150,  47.091
   567.0,0.000042,0.000087,-0.000274,-0.000150,  47.085
   568.0,0.000054,0.000092,-0.000383,-0.000115,  47.079
   569.0,0.000062,0.000098,-0.000379,-0.000080,  47.073
   570.0,0.000059,0.000096,-0.000424,-0.000080,  47.070
   571.0,0.000046,0.000090,-0.000381,-0.000080,  47.062
   572.0,0.000042,0.000087,-0.000447,-0.000115,  47.055
   573.0,0.000046,0.000081,-0.000564,-0.000093,  47.051
   574.0,0.000038,0.000075,-0.000430,-0.000080,  47.050
   575.0,0.000034,0.000075,-0.000393,-0.000115,  47.054
   576.0,0.000037,0.000082,-0.000428,-0.000107,  47.043
   577.0,0.000046,0.000090,-0.000404,-0.000080,  47.043
   578.0,0.000046,0.000094,-0.000376,-0.000115,  47.036
   579.0,0.000048,0.000091,-0.000352,-0.000093,  47.014
   580.0,0.000039,0.000088,-0.000402,-0.000115,  47.009
   581.0,0.000046,0.000083,-0.000400,-0.000093,  47.011
   582.0,0.000038,0.000085,-0.000365,-0.000080,  47.008
   583.0,0.000029,0.000080,-0.000443,-0.000129,  47.005
   584.0,0.000030,0.000075,-0.000422,-0.000107,  47.005
   585.0,0.000024,0.000078,-0.000474,-0.000107,  47.012
   586.0,0.000021,0.000070,-0.000539,-0.000129,  47.020
   587.0,0.000022,0.000074,-0.000552,-0.000107,  47.024
   588.0,0.000031,0.000071,-0.000493,-0.000129,  47.021
   589.0,0.000028,0.000062,-0.000479,-0.000142,  47.013
   590.0,0.000019,0.000069,-0.000622,-0.000177,  47.009
   591.0,0.000021,0.000064,-0.000706,-0.000164,  46.996
   592.0,0.000019,0.000070,-0.000558,-0.000142,  46.993
   593.0,0.000017,0.000068,-0.000654,-0.000177,  46.984
   594.0,0.000022,0.000065,-0.000644,-0.000164,  46.975
   595.0,0.000028,0.000067,-0.000568,-0.000142,  46.964
   596.0,0.000016,0.000068,-0.000590,-0.000177,  46.957
   597.0,0.000017,0.000069,-0.000535,-0.000142,  46.949
   598.0,0.000025,0.000064,-0.000667,-0.000177,  46.943
   599.0,0.000023,0.000067,-0.000611,-0.000164,  46.919
   600.0,0.000011,0.000058,-0.000581,-0.000155,  46.917
   601.0,0.000000,0.000062,-0.000694,-0.000177,  46.911
   602.0,-0.000003,0.000052,-0.000742,-0.000177,  46.911
   603.0,0.000001,0.000048,-0.001334,-0.000155,  46.917
   604.0,0.000001,0.000036,-0.001280,-0.000177,  46.913
   605.0,-0.000002,0.000036,-0.000932,-0.000155,  46.913
   606.0,-0.000004,0.000043,-0.000895,-0.000155,  46.916
   607.0,-0.000013,0.000033,-0.000882,-0.000177,  46.913
   608.0,-0.000010,0.000036,-0.001117,-0.000169,  46.916
   609.0,-0.000002,0.000045,-0.000891,-0.000204,  46.915
   610.0,0.000001,0.000048,-0.000979,-0.000191,  46.907
   611.0,0.000010,0.000048,-0.000826,-0.000134,  46.918
   612.0,0.000012,0.000051,-0.000977,-0.000107,  46.919
   613.0,0.000011,0.000057,-0.000754,-0.000142,  46.923
   614.0,0.000017,0.000066,-0.000734,-0.000120,  46.925
   615.0,0.000021,0.000069,-0.000734,-0.000142,  46.925
   616.0,0.000017,0.000065,-0.000786,-0.000134,  46.920
   617.0,0.000010,0.000062,-0.000734,-0.000134,  46.915
   618.0,0.000019,0.000057,-0.000707,-0.000155,  46.916
   619.0,0.000009,0.000064,-0.000775,-0.000134,  46.918
   620.0,0.000017,0.000058,-0.000981,-0.000134,  46.923
   621.0,0.000017,0.000061,-0.000792,-0.000169,  46.916
   622.0,0.000015,0.000062,-0.000812,-0.000098,  46.920
   623.0,0.000028,0.000061,-0.000731,-0.000155,  46.924
   624.0,0.000023,0.000061,-0.000690,-0.000169,  46.923
   625.0,0.000003,0.000057,-0.000667,-0.000204,  46.923
   626.0,-0.000003,0.000043,-0.000667,-0.000191,  46.923
   627.0,0.000003,0.000040,-0.000732,-0.000134,  46.926
   628.0,0.000000,0.000055,-0.000841,-0.000134,  46.929
   629.0,0.000008,0.000053,-0.000888,-0.000161,  46.928
   630.0,0.000019,0.000060,-0.000717,-0.000112,  46.925
   631.0,0.000028,0.000066,-0.000862,-0.000134,  46.920
   632.0,0.000027,0.000079,-0.000755,-0.000134,  46.927
   633.0,0.000027,0.000070,-0.000681,-0.000134,  46.913
   634.0,0.000018,0.000073,-0.000670,-0.000155,  46.918
   635.0,0.000019,0.000064,-0.000657,-0.000134,  46.919
   636.0,0.000017,0.000068,-0.000689,-0.000134,  46.923
   637.0,0.000005,0.000066,-0.000846,-0.000155,  46.927
   638.0,0.000009,0.000057,-0.000692,-0.000134,  46.926
   639.0,0.000003,0.000052,-0.000673,-0.000134,  46.939
   640.0,0.000009,0.000054,-0.000712,-0.000134,  46.940
   641.0,0.000001,0.000060,-0.001791,-0.000134,  46.947
   642.0,-0.000005,0.000054,-0.001105,-0.000182,  46.959
   643.0,0.000006,0.000059,-0.000910,-0.000182,  46.967
   644.0,0.000009,0.000061,-0.000723,-0.000204,  46.964
   645.0,0.000007,0.000064,-0.000727,-0.000204,  46.973
   646.0,0.000007,0.000066,-0.000653,-0.000169,  46.972
   647.0,0.000004,0.000067,-0.000670,-0.000204,  46.972
   648.0,0.000013,0.000067,-0.000603,-0.000204,  46.977
   649.0,0.000003,0.000058,-0.000599,-0.000196,  46.980
   650.0,0.000005,0.000060,-0.000725,-0.000231,  46.977
   651.0,0.000011,0.000069,-0.001811,-0.000182,  46.981
   652.0,0.000006,0.000063,-0.001695,-0.000204,  46.978
   653.0,0.000011,0.000062,-0.001029,-0.000218,  46.989
   654.0,0.000003,0.000056,-0.000794,-0.000182,  46.987
   655.0,0.000009,0.000057,-0.000690,-0.000169,  46.996
   656.0,0.000006,0.000056,-0.000757,-0.000182,  46.996
   657.0,-0.000001,0.000052,-0.000719,-0.000147,  46.996
   658.0,-0.000013,0.000049,-0.000762,-0.000134,  46.993
   659.0,-0.000016,0.000055,-0.000732,-0.000161,  46.991
   660.0,-0.000005,0.000047,-0.000667,-0.000161,  46.987
   661.0,-0.000008,0.000050,-0.000729,-0.000196,  46.988
   662.0,-0.000003,0.000052,-0.000758,-0.000147,  46.981
   663.0,0.000006,0.000060,-0.000903,-0.000134,  46.980
   664.0,0.000000,0.000043,-0.000497,-0.000182,  46.980
   665.0,0.000001,0.000039,-0.000747,-0.000147,  46.972
   666.0,-0.000005,0.000045,-0.000892,-0.000161,  46.977
   667.0,-0.000007,0.000043,-0.000875,-0.000139,  46.976
   668.0,-0.000010,0.000036,-0.001545,-0.000161,  46.973
   669.0,-0.000018,0.000051,-0.001996,-0.000196,  46.984
   670.0,-0.000010,0.000043,-0.001249,-0.000134,  46.985
   671.0,-0.000008,0.000053,-0.001005,-0.000161,  46.981
   672.0,-0.000005,0.000057,-0.001023,-0.000182,  46.991
   673.0,-0.000008,0.000046,-0.001033,-0.000147,  46.998
   674.0,-0.000005,0.000050,-0.000892,-0.000134,  46.995
   675.0,-0.000002,0.000040,-0.000872,-0.000147,  47.001
   676.0,-0.000004,0.000054,-0.000799,-0.000161,  47.005
   677.0,-0.000005,0.000057,-0.000906,-0.000196,  47.001
   678.0,0.000003,0.000060,-0.000816,-0.000147,  46.998
   679.0,0.000003,0.000065,-0.000717,-0.000134,  47.008
   680.0,0.000002,0.000063,-0.000675,-0.000169,  47.010
   681.0,0.000005,0.000068,-0.001759,-0.000134,  47.012
   682.0,0.000003,0.000061,-0.001571,-0.000134,  47.029
   683.0,0.000011,0.000055,-0.001090,-0.000134,  47.039
   684.0,-0.000003,0.000048,-0.000844,-0.000120,  47.037
   685.0,-0.000021,0.000040,-0.000792,-0.000182,  47.045
   686.0,-0.000021,0.000043,-0.000766,-0.000161,  47.047
   687.0,-0.000025,0.000037,-0.000836,-0.000161,  47.042
   688.0,-0.000017,0.000040,-0.000847,-0.000196,  47.034
   689.0,-0.000014,0.000056,-0.000849,-0.000147,  47.039
   690.0,-0.000009,0.000058,-0.000809,-0.000134,  47.041
   691.0,-0.000003,0.000052,-0.000874,-0.000155,  47.040
   692.0,0.000001,0.000058,-0.000792,-0.000120,  47.041
   693.0,-0.000005,0.000059,-0.000735,-0.000155,  47.041
   694.0,-0.000008,0.000050,-0.000837,-0.000134,  47.046
   695.0,-0.000021,0.000046,-0.000719,-0.000134,  47.039
   696.0,-0.000024,0.000035,-0.000745,-0.000209,  47.050
   697.0,-0.000018,0.000036,-0.000773,-0.000174,  47.056
   698.0,-0.000024,0.000037,-0.000873,-0.000161,  47.053
   699.0,-0.000026,0.000036,-0.000973,-0.000196,  47.055
   700.0,-0.000026,0.000035,-0.000971,-0.000161,  47.053
   701.0,-0.000025,0.000040,-0.000967,-0.000147,  47.059
   702.0,-0.000018,0.000037,-0.000888,-0.000161,  47.060
   703.0,-0.000018,0.000048,-0.000931,-0.000161,  47.058
   704.0,-0.000029,0.000030,-0.000897,-0.000196,  47.059
   705.0,-0.000024,0.000034,-0.000876,-0.000161,  47.062
   706.0,-0.000026,0.000037,-0.000900,-0.000161,  47.056
   707.0,-0.000027,0.000046,-0.000580,-0.000196,  47.058
   708.0,-0.000021,0.000052,-0.000749,-0.000161,  47.053
   709.0,-0.000018,0.000044,-0.000828,-0.000147,  47.048
   710.0,-0.000021,0.000046,-0.000869,-0.000147,  47.049
   711.0,-0.000012,0.000051,-0.000862,-0.000134,  47.039
   712.0,-0.000018,0.000050,-0.000812,-0.000182,  47.038
   713.0,-0.000018,0.000046,-0.000888,-0.000139,  47.041
   714.0,-0.000020,0.000041,-0.001180,-0.000161,  47.040
   715.0,-0.000018,0.000044,-0.001715,-0.000174,  47.035
   716.0,-0.000024,0.000040,-0.001221,-0.000139,  47.045
   717.0,-0.000026,0.000039,-0.000991,-0.000161,  47.043
   718.0,-0.000015,0.000036,-0.000959,-0.000161,  47.041
   719.0,-0.000018,0.000037,-0.000858,-0.000161,  47.039
   720.0,-0.000026,0.000042,-0.000953,-0.000196,  47.037
   721.0,-0.000034,0.000032,-0.000939,-0.000161,  47.037
   722.0,-0.000032,0.000027,-0.000911,-0.000161,  47.038
   723.0,-0.000032,0.000030,-0.000906,-0.000196,  47.030
   724.0,-0.000029,0.000033,-0.000795,-0.000161,  47.030
   725.0,-0.000031,0.000034,-0.000797,-0.000134,  47.031
   726.0,-0.000023,0.000043,-0.000841,-0.000147,  47.034
   727.0,-0.000029,0.000035,-0.000841,-0.000147,  47.033
   728.0,-0.000029,0.000037,-0.000884,-0.000196,  47.034
   729.0,-0.000026,0.000041,-0.001146,-0.000161,  47.032
   730.0,-0.000023,0.000047,-0.001007,-0.000161,  47.034
   731.0,-0.000029,0.000038,-0.001007,-0.000209,  47.025
   732.0,-0.000020,0.000039,-0.000923,-0.000174,  47.023
   733.0,-0.000023,0.000036,-0.000949,-0.000161,  47.022
   734.0,-0.000032,0.000039,-0.000890,-0.000152,  47.015
   735.0,-0.000023,0.000036,-0.000959,-0.000139,  47.011
   736.0,-0.000032,0.000030,-0.000914,-0.000174,  47.011
   737.0,-0.000043,0.000029,-0.000923,-0.000139,  47.010
   738.0,-0.000043,0.000031,-0.000953,-0.000161,  46.991
   739.0,-0.000043,0.000031,-0.000934,-0.000187,  46.995
   740.0,-0.000029,0.000023,-0.001004,-0.000117,  46.998
   741.0,-0.000032,0.000029,-0.000983,-0.000161,  47.006
   742.0,-0.000024,0.000038,-0.000939,-0.000174,  47.012
   743.0,-0.000024,0.000047,-0.000904,-0.000139,  47.027
   744.0,-0.000033,0.000051,-0.000904,-0.000174,  47.032
   745.0,-0.000027,0.000047,-0.001012,-0.000161,  47.039
   746.0,-0.000029,0.000040,-0.000899,-0.000161,  47.033
   747.0,-0.000029,0.000037,-0.000934,-0.000209,  47.033
   748.0,-0.000038,0.000042,-0.000964,-0.000209,  47.035
   749.0,-0.000032,0.000038,-0.000895,-0.000231,  47.040
   750.0,-0.000037,0.000029,-0.000927,-0.000223,  47.043
   751.0,-0.000042,0.000023,-0.000923,-0.000187,  47.045
   752.0,-0.000042,0.000017,-0.001063,-0.000187,  47.045
   753.0,-0.000050,0.000013,-0.000974,-0.000179,  47.044
   754.0,-0.000052,0.000018,-0.000889,-0.000201,  47.038
   755.0,-0.000055,0.000007,-0.001039,-0.000201,  47.033
   756.0,-0.000045,0.000016,-0.001189,-0.000179,  47.032
   757.0,-0.000043,0.000028,-0.001048,-0.000174,  47.031
   758.0,-0.000040,0.000035,-0.001067,-0.000187,  47.035
   759.0,-0.000032,0.000041,-0.000991,-0.000139,  47.024
   760.0,-0.000032,0.000042,-0.000954,-0.000161,  47.030
   761.0,-0.000038,0.000028,-0.000889,-0.000152,  47.027
   762.0,-0.000043,0.000028,-0.000893,-0.000152,  47.021
   763.0,-0.000046,0.000038,-0.001025,-0.000187,  47.013
   764.0,-0.000030,0.000034,-0.000945,-0.000139,  46.986
   765.0,-0.000030,0.000038,-0.000867,-0.000161,  46.995
   766.0,-0.000036,0.000048,-0.000862,-0.000209,  46.987
   767.0,-0.000030,0.000033,-0.000880,-0.000174,  46.992
   768.0,-0.000032,0.000036,-0.000834,-0.000161,  46.994
   769.0,-0.000032,0.000047,-0.000827,-0.000201,  46.994
   770.0,-0.000037,0.000033,-0.000847,-0.000187,  47.002
   771.0,-0.000049,0.000034,-0.000866,-0.000223,  46.994
   772.0,-0.000043,0.000035,-0.000936,-0.000187,  47.000
   773.0,-0.000046,0.000038,-0.000968,-0.000174,  47.002
   774.0,-0.000044,0.000035,-0.000875,-0.000209,  47.003
   775.0,-0.000038,0.000031,-0.000906,-0.000174,  47.013
   776.0,-0.000034,0.000032,-0.000860,-0.000161,  47.011
   777.0,-0.000037,0.000034,-0.001007,-0.000223,  47.039
   778.0,-0.000046,0.000032,-0.000944,-0.000166,  47.045
   779.0,-0.000057,0.000029,-0.000977,-0.000166,  47.043
   780.0,-0.000058,0.000020,-0.000931,-0.000166,  47.054
   781.0,-0.000052,0.000025,-0.001105,-0.000174,  47.059
   782.0,-0.000046,0.000033,-0.000980,-0.000174,  47.064
   783.0,-0.000046,0.000032,-0.000995,-0.000174,  47.064
   784.0,-0.000048,0.000022,-0.001015,-0.000174,  47.057
   785.0,-0.000054,0.000023,-0.000867,-0.000223,  47.054
   786.0,-0.000048,0.000021,-0.000898,-0.000187,  47.052
   787.0,-0.000060,0.000026,-0.000923,-0.000187,  47.053
   788.0,-0.000051,0.000032,-0.000975,-0.000166,  47.046
   789.0,-0.000045,0.000029,-0.000956,-0.000201,  47.047
   790.0,-0.000048,0.000030,-0.000941,-0.000187,  47.043
   791.0,-0.000045,0.000028,-0.001027,-0.000152,  47.036
   792.0,-0.000047,0.000027,-0.000971,-0.000187,  47.029
   793.0,-0.000042,0.000022,-0.000941,-0.000236,  47.024
   794.0,-0.000041,0.000021,-0.000979,-0.000166,  47.031
   795.0,-0.000048,0.000019,-0.000931,-0.000174,  47.033
   796.0,-0.000046,0.000025,-0.000991,-0.000166,  47.027
   797.0,-0.000056,0.000021,-0.001048,-0.000187,  47.031
   798.0,-0.000065,0.000020,-0.001184,-0.000201,  47.033
   799.0,-0.000055,0.000023,-0.001185,-0.000166,  47.038
   800.0,-0.000053,0.000023,-0.001194,-0.000201,  47.034
   801.0,-0.000054,0.000025,-0.001113,-0.000174,  47.038
   802.0,-0.000048,0.000031,-0.001031,-0.000187,  47.029
   803.0,-0.000048,0.000029,-0.001017,-0.000174,  47.020
   804.0,-0.000032,0.000030,-0.001097,-0.000174,  46.994
   805.0,-0.000040,0.000035,-0.000984,-0.000174,  46.989
   806.0,-0.000043,0.000037,-0.000949,-0.000209,  46.983
   807.0,-0.000040,0.000042,-0.000955,-0.000174,  46.988
   808.0,-0.000040,0.000042,-0.000899,-0.000161,  46.989
   809.0,-0.000041,0.000040,-0.000964,-0.000187,  46.996
   810.0,-0.000040,0.000033,-0.000966,-0.000152,  46.998
   811.0,-0.000048,0.000026,-0.003232,-0.000187,  47.004
   812.0,-0.000048,0.000029,-0.001648,-0.000174,  47.012
   813.0,-0.000047,0.000026,-0.001215,-0.000152,  47.016
   814.0,-0.000047,0.000027,-0.001087,-0.000187,  47.010
   815.0,-0.000050,0.000027,-0.001879,-0.000152,  47.009
   816.0,-0.000047,0.000017,-0.001733,-0.000201,  47.015
   817.0,-0.000057,0.000022,-0.001276,-0.000236,  47.016
   818.0,-0.000051,0.000025,-0.001104,-0.000166,  47.016
   819.0,-0.000051,0.000022,-0.001108,-0.000201,  47.020
   820.0,-0.000048,0.000023,-0.001141,-0.000174,  47.042
   821.0,-0.000043,0.000029,-0.000993,-0.000187,  47.051
   822.0,-0.000052,0.000022,-0.000984,-0.000187,  47.048
   823.0,-0.000051,0.000027,-0.001034,-0.000187,  47.052
   824.0,-0.000048,0.000026,-0.001039,-0.000214,  47.050
   825.0,-0.000054,0.000029,-0.000949,-0.000209,  47.050
   826.0,-0.000045,0.000031,-0.001143,-0.000187,  47.045
   827.0,-0.000047,0.000034,-0.001013,-0.000187,  47.048
   828.0,-0.000042,0.000029,-0.000995,-0.000223,  47.051
   829.0,-0.000051,0.000025,-0.000960,-0.000187,  47.054
   830.0,-0.000053,0.000022,-0.001132,-0.000187,  47.050
   831.0,-0.000053,0.000022,-0.001071,-0.000201,  47.045
   832.0,-0.000053,0.000013,-0.001514,-0.000174,  47.046
   833.0,-0.000050,0.000025,-0.002240,-0.000223,  47.042
   834.0,-0.000055,0.000016,-0.001542,-0.000187,  47.043
   835.0,-0.000059,0.000017,-0.001246,-0.000201,  47.046
   836.0,-0.000065,0.000012,-0.001131,-0.000250,  47.043
   837.0,-0.000064,0.000007,-0.001112,-0.000179,  47.047
   838.0,-0.000061,0.000008,-0.001079,-0.000201,  47.052
   839.0,-0.000067,0.000016,-0.001122,-0.000236,  47.048
   840.0,-0.000070,0.000003,-0.001136,-0.000187,  47.045
   841.0,-0.000070,0.000009,-0.001131,-0.000223,  47.043
   842.0,-0.000067,0.000017,-0.001314,-0.000201,  47.039
   843.0,-0.000060,0.000010,-0.001129,-0.000201,  47.041
   844.0,-0.000059,0.000018,-0.001116,-0.000201,  47.045
   845.0,-0.000053,0.000013,-0.001150,-0.000166,  47.040
   846.0,-0.000048,0.000024,-0.001053,-0.000174,  47.046
   847.0,-0.000042,0.000028,-0.001022,-0.000187,  47.040
   848.0,-0.000053,0.000022,-0.001107,-0.000152,  47.035
   849.0,-0.000059,0.000016,-0.001128,-0.000152,  47.014
   850.0,-0.000061,0.000021,-0.001137,-0.000152,  47.012
   851.0,-0.000061,0.000012,-0.001154,-0.000187,  47.013
   852.0,-0.000066,0.000019,-0.001059,-0.000214,  47.014
   853.0,-0.000065,0.000015,-0.001105,-0.000166,  47.012
   854.0,-0.000064,0.000014,-0.002225,-0.000201,  47.011
   855.0,-0.000064,0.000021,-0.001462,-0.000201,  47.016
   856.0,-0.000052,0.000018,-0.001199,-0.000166,  47.019
   857.0,-0.000065,0.000015,-0.001148,-0.000201,  47.017
   858.0,-0.000064,0.000015,-0.001212,-0.000166,  47.015
   859.0,-0.000064,0.000015,-0.001253,-0.000201,  47.014
   860.0,-0.000055,0.000014,-0.001201,-0.000201,  47.011
   861.0,-0.000053,0.000010,-0.001156,-0.000166,  47.007
   862.0,-0.000055,0.000016,-0.001112,-0.000201,  47.009
   863.0,-0.000055,0.000017,-0.001171,-0.000201,  47.006
   864.0,-0.000050,0.000022,-0.001156,-0.000166,  47.006
   865.0,-0.000059,0.000017,-0.001053,-0.000193,  47.003
   866.0,-0.000053,0.000017,-0.001107,-0.000193,  46.997
   867.0,-0.000056,0.000018,-0.001164,-0.000179,  46.998
   868.0,-0.000060,0.000029,-0.001105,-0.000201,  46.997
   869.0,-0.000060,0.000025,-0.001268,-0.000166,  47.005
   870.0,-0.000054,0.000026,-0.001152,-0.000187,  47.009
   871.0,-0.000056,0.000025,-0.001105,-0.000187,  47.010
   872.0,-0.000046,0.000032,-0.001077,-0.000174,  47.020
   873.0,-0.000054,0.000025,-0.001096,-0.000161,  47.027
   874.0,-0.000066,0.000027,-0.001017,-0.000209,  47.031
   875.0,-0.000054,0.000020,-0.001061,-0.000174,  47.061
   876.0,-0.000054,0.000020,-0.001130,-0.000214,  47.056
   877.0,-0.000054,0.000025,-0.002048,-0.000174,  47.061
   878.0,-0.000049,0.000037,-0.001921,-0.000161,  47.068
   879.0,-0.000055,0.000036,-0.001302,-0.000209,  47.069
   880.0,-0.000064,0.000031,-0.001137,-0.000174,  47.084
   881.0,-0.000062,0.000026,-0.000987,-0.000161,  47.090
   882.0,-0.000056,0.000024,-0.000996,-0.000223,  47.096
   883.0,-0.000060,0.000029,-0.001033,-0.000187,  47.095
   884.0,-0.000057,0.000029,-0.001140,-0.000187,  47.101
   885.0,-0.000060,0.000022,-0.001073,-0.000174,  47.099
   886.0,-0.000053,0.000028,-0.001064,-0.000161,  47.099
   887.0,-0.000057,0.000024,-0.001102,-0.000174,  47.100
   888.0,-0.000042,0.000036,-0.001087,-0.000125,  47.103
   889.0,-0.000039,0.000040,-0.001044,-0.000161,  47.101
   890.0,-0.000050,0.000030,-0.001265,-0.000196,  47.099
   891.0,-0.000053,0.000021,-0.001077,-0.000139,  47.103
   892.0,-0.000045,0.000030,-0.001092,-0.000174,  47.106
   893.0,-0.000031,0.000033,-0.001059,-0.000152,  47.114
   894.0,-0.000040,0.000031,-0.001046,-0.000187,  47.114
   895.0,-0.000044,0.000034,-0.001057,-0.000174,  47.113
   896.0,-0.000042,0.000044,-0.001079,-0.000139,  47.111
   897.0,-0.000035,0.000048,-0.001146,-0.000174,  47.107
   898.0,-0.000041,0.000044,-0.001113,-0.000196,  47.110
   899.0,-0.000038,0.000048,-0.000967,-0.000161,  47.108
   900.0,-0.000041,0.000044,-0.000987,-0.000161,  47.110
   901.0,-0.000030,0.000046,-0.000971,-0.000196,  47.112
   902.0,-0.000027,0.000041,-0.001034,-0.000147,  47.112
   903.0,-0.000032,0.000049,-0.001089,-0.000182,  47.123
   904.0,-0.000039,0.000047,-0.002102,-0.000147,  47.131
   905.0,-0.000041,0.000048,-0.001911,-0.000161,  47.151
   906.0,-0.000041,0.000039,-0.001388,-0.000223,  47.154
   907.0,-0.000049,0.000034,-0.001300,-0.000174,  47.162
   908.0,-0.000051,0.000028,-0.001133,-0.000174,  47.161
   909.0,-0.000051,0.000029,-0.002966,-0.000196,  47.157
   910.0,-0.000053,0.000030,-0.001913,-0.000161,  47.165
   911.0,-0.000060,0.000026,-0.001519,-0.000147,  47.156
   912.0,-0.000053,0.000025,-0.001440,-0.000161,  47.154
   913.0,-0.000048,0.000030,-0.001303,-0.000161,  47.146
   914.0,-0.000054,0.000038,-0.001168,-0.000209,  47.142
   915.0,-0.000048,0.000026,-0.001118,-0.000161,  47.136
   916.0,-0.000042,0.000022,-0.001101,-0.000161,  47.111
   917.0,-0.000039,0.000034,-0.001125,-0.000196,  47.099
   918.0,-0.000046,0.000033,-0.001082,-0.000161,  47.087
   919.0,-0.000046,0.000036,-0.001127,-0.000125,  47.083
   920.0,-0.000034,0.000038,-0.000995,-0.000125,  47.082
   921.0,-0.000039,0.000042,-0.001086,-0.000161,  47.069
   922.0,-0.000034,0.000038,-0.001100,-0.000161,  47.066
   923.0,-0.000039,0.000042,-0.001168,-0.000112,  47.059
