Run Name,Run 1
Run Date,03:42:24 PM   04-06-15
Method Name,16% C group 2 April 7 2014.13
Export Format Version, 1.00
Method ID, 2524
Points/Second, 5.00
Number of Records,   3120
Offset from Run Start Time,00:00:00
Run End Time,00:10:23
Time,Second
QuadTec 1, (280.0 nm), AU
QuadTec 2, (260.0 nm), AU
Gradient Pump,<Not Selected>
QuadTec 3, (214.0 nm), AU
QuadTec 4, (405.0 nm), AU
Conductivity,mS/cm
Trace 6,<Not Available>
GP Pressure,<Not Selected>
Volume,<Not Selected>
Fraction,<Not Available>
Time,QuadTec 1,QuadTec 2,QuadTec 3,QuadTec 4,Conductivity
     0.0,0.000148,0.000000,0.003921,0.000000,  12.831
     0.2,0.000139,0.000000,0.003921,0.000000,  12.827
     0.4,0.000190,0.000000,0.003921,0.000000,  12.827
     0.6,0.000273,0.000000,0.003921,0.000000,  12.830
     0.8,0.000000,0.000000,0.000000,0.000000,  12.832
     1.0,0.000000,0.000000,0.000000,0.000000,  12.828
     1.2,0.000000,0.000000,0.000000,0.000000,  12.830
     1.4,0.000000,0.000000,0.000000,0.000000,  12.830
     1.6,0.000000,0.000000,0.000000,0.000000,  12.832
     1.8,0.000000,0.000000,0.000000,0.000000,  12.829
     2.0,0.000000,0.000000,0.000000,0.000000,  12.829
     2.2,0.000000,0.000000,0.000000,0.000000,  12.831
     2.4,0.000000,0.000000,0.000000,0.000000,  12.831
     2.6,0.000000,0.000000,0.000000,0.000000,  12.830
     2.8,0.000000,0.000000,0.000000,0.000000,  12.831
     3.0,0.000000,0.000000,0.000000,0.000000,  12.831
     3.2,0.000000,0.000000,0.000000,0.000000,  12.825
     3.4,0.000000,0.000000,0.000000,0.000000,  12.830
     3.6,0.000000,0.000000,0.000000,0.000000,  12.832
     3.8,0.000000,0.000000,0.000000,0.000000,  12.835
     4.0,0.000000,0.000000,0.000000,0.000000,  12.831
     4.2,0.000000,0.000000,0.000000,0.000000,  12.828
     4.4,0.000027,0.000000,0.000000,-0.000011,  12.828
     4.6,0.000051,0.000082,-0.002042,-0.000011,  12.827
     4.8,0.000070,0.000085,-0.001751,0.000003,  12.827
     5.0,0.000082,0.000094,-0.001485,0.000003,  12.825
     5.2,0.000092,0.000106,-0.001274,0.000029,  12.829
     5.4,0.000095,0.000115,-0.001087,0.000005,  12.825
     5.6,0.000107,0.000125,-0.000962,0.000005,  12.825
     5.8,0.000116,0.000130,-0.000864,0.000019,  12.827
     6.0,0.000123,0.000135,-0.000899,0.000008,  12.825
     6.2,0.000135,0.000139,-0.001015,0.000032,  12.826
     6.4,0.000138,0.000154,-0.001218,0.000045,  12.826
     6.6,0.000149,0.000163,-0.001182,0.000008,  12.830
     6.8,0.000161,0.000167,-0.001067,0.000045,  12.832
     7.0,0.000163,0.000180,-0.000872,0.000059,  12.828
     7.2,0.000172,0.000193,-0.000784,0.000021,  12.829
     7.4,0.000181,0.000197,-0.000738,0.000072,  12.827
     7.6,0.000191,0.000206,-0.000692,0.000086,  12.828
     7.8,0.000194,0.000210,-0.000701,0.000048,  12.827
     8.0,0.000200,0.000217,-0.000790,0.000086,  12.829
     8.2,0.000200,0.000222,-0.000915,0.000099,  12.824
     8.4,0.000204,0.000227,-0.000878,0.000061,  12.825
     8.6,0.000215,0.000228,-0.000805,0.000099,  12.826
     8.8,0.000203,0.000228,-0.000663,0.000099,  12.827
     9.0,0.000217,0.000228,-0.000673,0.000099,  12.825
     9.2,0.000217,0.000228,-0.000788,0.000136,  12.824
     9.4,0.000215,0.000228,-0.000957,0.000150,  12.823
     9.6,0.000226,0.000237,-0.000948,0.000150,  12.824
     9.8,0.000229,0.000234,-0.000911,0.000150,  12.820
    10.0,0.000235,0.000236,-0.000839,0.000163,  12.823
    10.2,0.000231,0.000234,-0.000856,0.000163,  12.825
    10.4,0.000235,0.000236,-0.000935,0.000150,  12.824
    10.6,0.000238,0.000241,-0.001050,0.000150,  12.824
    10.8,0.000231,0.000246,-0.001129,0.000163,  12.822
    11.0,0.000238,0.000248,-0.001201,0.000150,  12.819
    11.2,0.000241,0.000251,-0.001306,0.000150,  12.823
    11.4,0.000231,0.000246,-0.001368,0.000163,  12.820
    11.6,0.000238,0.000248,-0.001412,0.000112,  12.818
    11.8,0.000244,0.000248,-0.001474,0.000150,  12.818
    12.0,0.000240,0.000248,-0.001501,0.000150,  12.818
    12.2,0.000251,0.000256,-0.001535,0.000163,  12.818
    12.4,0.000260,0.000263,-0.001587,0.000163,  12.821
    12.6,0.000262,0.000272,-0.001657,0.000177,  12.818
    12.8,0.000275,0.000282,-0.001646,0.000203,  12.817
    13.0,0.000285,0.000289,-0.001634,0.000217,  12.813
    13.2,0.000290,0.000299,-0.001571,0.000230,  12.817
    13.4,0.000310,0.000309,-0.001623,0.000244,  12.816
    13.6,0.000319,0.000311,-0.001746,0.000244,  12.819
    13.8,0.000328,0.000323,-0.001915,0.000270,  12.819
    14.0,0.000342,0.000330,-0.002161,0.000233,  12.817
    14.2,0.000348,0.000332,-0.002478,0.000233,  12.816
    14.4,0.000357,0.000337,-0.002882,0.000246,  12.817
    14.6,0.000360,0.000342,-0.002898,0.000222,  12.820
    14.8,0.000370,0.000349,-0.002747,0.000246,  12.817
    15.0,0.000373,0.000350,-0.002421,0.000246,  12.818
    15.2,0.000379,0.000354,-0.002341,0.000222,  12.818
    15.4,0.000393,0.000359,-0.002314,0.000246,  12.820
    15.6,0.000393,0.000365,-0.002306,0.000246,  12.820
    15.8,0.000389,0.000368,-0.002306,0.000222,  12.820
    16.0,0.000403,0.000370,-0.002359,0.000246,  12.817
    16.2,0.000406,0.000373,-0.002448,0.000246,  12.818
    16.4,0.000402,0.000378,-0.002386,0.000222,  12.816
    16.6,0.000405,0.000378,-0.002298,0.000246,  12.819
    16.8,0.000405,0.000375,-0.002166,0.000246,  12.819
    17.0,0.000402,0.000375,-0.002139,0.000222,  12.823
    17.2,0.000402,0.000377,-0.002139,0.000260,  12.818
    17.4,0.000401,0.000377,-0.002208,0.000260,  12.819
    17.6,0.000398,0.000377,-0.002145,0.000222,  12.819
    17.8,0.000401,0.000380,-0.002038,0.000260,  12.819
    18.0,0.000396,0.000380,-0.001896,0.000260,  12.824
    18.2,0.000407,0.000388,-0.001825,0.000235,  12.821
    18.4,0.000410,0.000389,-0.001771,0.000273,  12.822
    18.6,0.000413,0.000386,-0.001744,0.000273,  12.818
    18.8,0.000413,0.000388,-0.001762,0.000249,  12.826
    19.0,0.000410,0.000390,-0.001807,0.000273,  12.823
    19.2,0.000413,0.000390,-0.001915,0.000273,  12.824
    19.4,0.000416,0.000391,-0.002197,0.000249,  12.825
    19.6,0.000416,0.000391,-0.002611,0.000273,  12.827
    19.8,0.000422,0.000397,-0.003122,0.000273,  12.826
    20.0,0.000425,0.000403,-0.003132,0.000286,  12.831
    20.2,0.000428,0.000405,-0.002983,0.000273,  12.831
    20.4,0.000435,0.000401,-0.002657,0.000273,  12.827
    20.6,0.000435,0.000403,-0.002561,0.000249,  12.826
    20.8,0.000435,0.000405,-0.002517,0.000273,  12.828
    21.0,0.000438,0.000405,-0.002482,0.000273,  12.829
    21.2,0.000438,0.000411,-0.002501,0.000273,  12.829
    21.4,0.000438,0.000411,-0.002430,0.000249,  12.830
    21.6,0.000441,0.000414,-0.002315,0.000273,  12.831
    21.8,0.000438,0.000415,-0.002192,0.000273,  12.832
    22.0,0.000435,0.000415,-0.002095,0.000249,  12.830
    22.2,0.000435,0.000407,-0.001997,0.000273,  12.833
    22.4,0.000432,0.000409,-0.001916,0.000273,  12.833
    22.6,0.000425,0.000409,-0.001934,0.000249,  12.830
    22.8,0.000422,0.000401,-0.002024,0.000273,  12.833
    23.0,0.000416,0.000402,-0.002159,0.000273,  12.836
    23.2,0.000407,0.000400,-0.002723,0.000235,  12.834
    23.4,0.000404,0.000392,-0.003558,0.000260,  12.836
    23.6,0.000390,0.000386,-0.004618,0.000260,  12.837
    23.8,0.000387,0.000381,-0.004599,0.000246,  12.837
    24.0,0.000381,0.000379,-0.004144,0.000270,  12.840
    24.2,0.000367,0.000372,-0.003267,0.000257,  12.840
    24.4,0.000362,0.000362,-0.002994,0.000257,  12.838
    24.6,0.000359,0.000358,-0.002791,0.000257,  12.838
    24.8,0.000355,0.000353,-0.002643,0.000244,  12.840
    25.0,0.000362,0.000354,-0.002467,0.000244,  12.843
    25.2,0.000359,0.000349,-0.002325,0.000244,  12.841
    25.4,0.000352,0.000344,-0.002175,0.000257,  12.844
    25.6,0.000353,0.000349,-0.002041,0.000257,  12.845
    25.8,0.000353,0.000347,-0.001909,0.000244,  12.842
    26.0,0.000339,0.000337,-0.001811,0.000257,  12.843
    26.2,0.000344,0.000340,-0.001757,0.000244,  12.844
    26.4,0.000340,0.000340,-0.001730,0.000230,  12.843
    26.6,0.000333,0.000334,-0.001749,0.000244,  12.847
    26.8,0.000327,0.000338,-0.001688,0.000230,  12.848
    27.0,0.000331,0.000338,-0.001651,0.000217,  12.851
    27.2,0.000327,0.000332,-0.001598,0.000230,  12.849
    27.4,0.000334,0.000335,-0.001632,0.000230,  12.849
    27.6,0.000337,0.000338,-0.001678,0.000217,  12.847
    27.8,0.000337,0.000337,-0.001811,0.000230,  12.849
    28.0,0.000330,0.000347,-0.001987,0.000230,  12.849
    28.2,0.000334,0.000349,-0.002233,0.000217,  12.846
    28.4,0.000334,0.000344,-0.002525,0.000217,  12.851
    28.6,0.000327,0.000344,-0.002534,0.000230,  12.852
    28.8,0.000331,0.000344,-0.002429,0.000217,  12.852
    29.0,0.000328,0.000338,-0.002235,0.000217,  12.851
    29.2,0.000328,0.000338,-0.002191,0.000217,  12.854
    29.4,0.000332,0.000338,-0.002147,0.000179,  12.852
    29.6,0.000332,0.000336,-0.002137,0.000203,  12.856
    29.8,0.000332,0.000345,-0.002118,0.000217,  12.855
    30.0,0.000332,0.000347,-0.002074,0.000217,  12.852
    30.2,0.000336,0.000342,-0.002065,0.000217,  12.860
    30.4,0.000336,0.000344,-0.002038,0.000230,  12.859
    30.6,0.000336,0.000346,-0.002019,0.000230,  12.856
    30.8,0.000339,0.000349,-0.002036,0.000217,  12.857
    31.0,0.000339,0.000349,-0.002046,0.000230,  12.858
    31.2,0.000339,0.000351,-0.002274,0.000230,  12.859
    31.4,0.000342,0.000354,-0.002627,0.000217,  12.858
    31.6,0.000345,0.000351,-0.003102,0.000230,  12.862
    31.8,0.000342,0.000351,-0.003347,0.000230,  12.861
    32.0,0.000349,0.000354,-0.003515,0.000217,  12.862
    32.2,0.000349,0.000348,-0.003639,0.000230,  12.860
    32.4,0.000346,0.000348,-0.003524,0.000230,  12.859
    32.6,0.000357,0.000348,-0.003312,0.000230,  12.854
    32.8,0.000360,0.000348,-0.002968,0.000244,  12.859
    33.0,0.000358,0.000351,-0.002828,0.000230,  12.861
    33.2,0.000354,0.000357,-0.002775,0.000230,  12.858
    33.4,0.000351,0.000360,-0.002767,0.000244,  12.862
    33.6,0.000351,0.000363,-0.002679,0.000230,  12.862
    33.8,0.000347,0.000365,-0.002599,0.000230,  12.861
    34.0,0.000344,0.000367,-0.002484,0.000244,  12.861
    34.2,0.000351,0.000363,-0.002413,0.000230,  12.859
    34.4,0.000358,0.000362,-0.002369,0.000230,  12.858
    34.6,0.000358,0.000357,-0.002342,0.000244,  12.862
    34.8,0.000355,0.000362,-0.002298,0.000230,  12.859
    35.0,0.000358,0.000362,-0.002280,0.000217,  12.863
    35.2,0.000362,0.000360,-0.002298,0.000230,  12.864
    35.4,0.000354,0.000364,-0.002570,0.000193,  12.861
    35.6,0.000354,0.000364,-0.002967,0.000179,  12.866
    35.8,0.000350,0.000358,-0.003521,0.000193,  12.859
    36.0,0.000357,0.000366,-0.003564,0.000155,  12.865
    36.2,0.000357,0.000369,-0.003388,0.000179,  12.863
    36.4,0.000353,0.000363,-0.003011,0.000193,  12.862
    36.6,0.000357,0.000365,-0.002915,0.000155,  12.863
    36.8,0.000357,0.000368,-0.002880,0.000179,  12.865
    37.0,0.000360,0.000368,-0.002909,0.000193,  12.863
    37.2,0.000360,0.000368,-0.002803,0.000155,  12.866
    37.4,0.000360,0.000373,-0.002671,0.000179,  12.866
    37.6,0.000367,0.000377,-0.002554,0.000179,  12.867
    37.8,0.000370,0.000382,-0.002474,0.000193,  12.870
    38.0,0.000370,0.000387,-0.002386,0.000193,  12.868
    38.2,0.000376,0.000384,-0.002324,0.000193,  12.867
    38.4,0.000379,0.000389,-0.002263,0.000155,  12.868
    38.6,0.000379,0.000392,-0.002209,0.000193,  12.870
    38.8,0.000385,0.000388,-0.002157,0.000193,  12.871
    39.0,0.000388,0.000390,-0.002113,0.000219,  12.871
    39.2,0.000394,0.000389,-0.002077,0.000182,  12.870
    39.4,0.000404,0.000396,-0.002085,0.000233,  12.869
    39.6,0.000416,0.000407,-0.002093,0.000246,  12.873
    39.8,0.000425,0.000411,-0.002110,0.000222,  12.870
    40.0,0.000435,0.000420,-0.002154,0.000260,  12.875
    40.2,0.000447,0.000439,-0.002208,0.000273,  12.875
    40.4,0.000453,0.000451,-0.002499,0.000235,  12.874
    40.6,0.000463,0.000455,-0.002940,0.000286,  12.874
    40.8,0.000475,0.000456,-0.003512,0.000300,  12.873
    41.0,0.000484,0.000463,-0.003521,0.000262,  12.875
    41.2,0.000490,0.000471,-0.003336,0.000313,  12.872
    41.4,0.000493,0.000467,-0.002957,0.000327,  12.875
    41.6,0.000497,0.000472,-0.002860,0.000276,  12.876
    41.8,0.000500,0.000482,-0.002781,0.000313,  12.878
    42.0,0.000500,0.000482,-0.002739,0.000327,  12.879
    42.2,0.000503,0.000491,-0.002633,0.000289,  12.875
    42.4,0.000506,0.000494,-0.002528,0.000327,  12.876
    42.6,0.000509,0.000496,-0.002405,0.000340,  12.880
    42.8,0.000512,0.000501,-0.002334,0.000302,  12.880
    43.0,0.000518,0.000508,-0.002273,0.000327,  12.878
    43.2,0.000518,0.000505,-0.002255,0.000340,  12.877
    43.4,0.000518,0.000506,-0.002202,0.000302,  12.879
    43.6,0.000529,0.000509,-0.002150,0.000327,  12.881
    43.8,0.000526,0.000509,-0.002105,0.000340,  12.880
    44.0,0.000526,0.000510,-0.002088,0.000302,  12.878
    44.2,0.000529,0.000512,-0.002088,0.000327,  12.880
    44.4,0.000526,0.000503,-0.002107,0.000340,  12.879
    44.6,0.000518,0.000503,-0.002072,0.000302,  12.883
    44.8,0.000515,0.000500,-0.002020,0.000327,  12.882
    45.0,0.000511,0.000498,-0.001994,0.000340,  12.885
    45.2,0.000512,0.000495,-0.001994,0.000302,  12.879
    45.4,0.000512,0.000495,-0.002003,0.000327,  12.882
    45.6,0.000505,0.000501,-0.002057,0.000340,  12.881
    45.8,0.000512,0.000504,-0.002162,0.000302,  12.886
    46.0,0.000512,0.000505,-0.002296,0.000327,  12.885
    46.2,0.000520,0.000503,-0.002467,0.000340,  12.885
    46.4,0.000520,0.000500,-0.002467,0.000302,  12.886
    46.6,0.000516,0.000500,-0.002404,0.000327,  12.889
    46.8,0.000524,0.000505,-0.002279,0.000327,  12.889
    47.0,0.000527,0.000506,-0.002270,0.000327,  12.890
    47.2,0.000516,0.000509,-0.002279,0.000327,  12.886
    47.4,0.000513,0.000506,-0.002333,0.000327,  12.885
    47.6,0.000518,0.000504,-0.002306,0.000302,  12.890
    47.8,0.000523,0.000501,-0.002252,0.000340,  12.889
    48.0,0.000516,0.000505,-0.002172,0.000340,  12.886
    48.2,0.000516,0.000504,-0.002074,0.000340,  12.888
    48.4,0.000516,0.000499,-0.002020,0.000302,  12.888
    48.6,0.000508,0.000496,-0.001994,0.000340,  12.889
    48.8,0.000516,0.000489,-0.001959,0.000340,  12.889
    49.0,0.000510,0.000487,-0.001959,0.000302,  12.892
    49.2,0.000499,0.000485,-0.001978,0.000327,  12.889
    49.4,0.000496,0.000478,-0.002049,0.000340,  12.890
    49.6,0.000490,0.000478,-0.002049,0.000276,  12.894
    49.8,0.000473,0.000475,-0.002049,0.000286,  12.892
    50.0,0.000464,0.000470,-0.002041,0.000286,  12.890
    50.2,0.000462,0.000468,-0.002129,0.000235,  12.892
    50.4,0.000448,0.000455,-0.002270,0.000260,  12.889
    50.6,0.000445,0.000450,-0.002473,0.000260,  12.889
    50.8,0.000446,0.000439,-0.002517,0.000209,  12.890
    51.0,0.000436,0.000437,-0.002509,0.000233,  12.892
    51.2,0.000430,0.000435,-0.002467,0.000233,  12.889
    51.4,0.000420,0.000430,-0.002369,0.000195,  12.891
    51.6,0.000417,0.000428,-0.002218,0.000233,  12.888
    51.8,0.000414,0.000420,-0.002022,0.000233,  12.894
    52.0,0.000411,0.000417,-0.002074,0.000195,  12.889
    52.2,0.000404,0.000415,-0.002216,0.000233,  12.891
    52.4,0.000401,0.000408,-0.002481,0.000233,  12.891
    52.6,0.000394,0.000409,-0.002498,0.000195,  12.887
    52.8,0.000391,0.000409,-0.002429,0.000233,  12.892
    53.0,0.000391,0.000398,-0.002341,0.000233,  12.889
    53.2,0.000396,0.000403,-0.002498,0.000195,  12.890
    53.4,0.000403,0.000403,-0.002728,0.000233,  12.887
    53.6,0.000403,0.000395,-0.003071,0.000233,  12.888
    53.8,0.000396,0.000398,-0.003044,0.000195,  12.890
    54.0,0.000393,0.000401,-0.002893,0.000233,  12.890
    54.2,0.000396,0.000395,-0.002594,0.000219,  12.891
    54.4,0.000385,0.000401,-0.002515,0.000182,  12.889
    54.6,0.000393,0.000397,-0.002515,0.000219,  12.891
    54.8,0.000393,0.000397,-0.002586,0.000206,  12.885
    55.0,0.000389,0.000395,-0.002542,0.000168,  12.887
    55.2,0.000386,0.000394,-0.002498,0.000206,  12.888
    55.4,0.000389,0.000400,-0.002444,0.000219,  12.889
    55.6,0.000389,0.000400,-0.002418,0.000182,  12.888
    55.8,0.000393,0.000400,-0.002435,0.000206,  12.891
    56.0,0.000396,0.000397,-0.002460,0.000206,  12.888
    56.2,0.000393,0.000398,-0.002407,0.000219,  12.891
    56.4,0.000397,0.000393,-0.002370,0.000206,  12.890
    56.6,0.000393,0.000392,-0.002299,0.000193,  12.888
    56.8,0.000393,0.000398,-0.002280,0.000155,  12.889
    57.0,0.000397,0.000398,-0.002271,0.000193,  12.887
    57.2,0.000389,0.000395,-0.002271,0.000193,  12.886
    57.4,0.000389,0.000400,-0.002298,0.000206,  12.885
    57.6,0.000391,0.000404,-0.002367,0.000155,  12.884
    57.8,0.000386,0.000401,-0.002438,0.000193,  12.885
    58.0,0.000389,0.000404,-0.002518,0.000206,  12.886
    58.2,0.000397,0.000406,-0.002517,0.000155,  12.886
    58.4,0.000393,0.000401,-0.002480,0.000193,  12.883
    58.6,0.000393,0.000403,-0.002383,0.000206,  12.886
    58.8,0.000397,0.000403,-0.002373,0.000155,  12.885
    59.0,0.000389,0.000393,-0.002408,0.000193,  12.887
    59.2,0.000389,0.000393,-0.002452,0.000206,  12.883
    59.4,0.000391,0.000391,-0.002584,0.000168,  12.885
    59.6,0.000383,0.000388,-0.002795,0.000206,  12.883
    59.8,0.000386,0.000388,-0.003067,0.000219,  12.880
    60.0,0.000383,0.000390,-0.003102,0.000168,  12.881
    60.2,0.000383,0.000390,-0.003050,0.000193,  12.879
    60.4,0.000386,0.000388,-0.002918,0.000206,  12.880
    60.6,0.000383,0.000383,-0.002830,0.000168,  12.881
    60.8,0.000379,0.000381,-0.002759,0.000206,  12.882
    61.0,0.000385,0.000385,-0.002680,0.000219,  12.882
    61.2,0.000388,0.000388,-0.002619,0.000182,  12.880
    61.4,0.000384,0.000391,-0.002592,0.000206,  12.878
    61.6,0.000381,0.000385,-0.002617,0.000219,  12.879
    61.8,0.000382,0.000389,-0.002767,0.000182,  12.879
    62.0,0.000389,0.000391,-0.002996,0.000206,  12.875
    62.2,0.000389,0.000388,-0.003349,0.000219,  12.880
    62.4,0.000383,0.000391,-0.003383,0.000182,  12.877
    62.6,0.000383,0.000386,-0.003295,0.000206,  12.875
    62.8,0.000383,0.000387,-0.003111,0.000233,  12.875
    63.0,0.000373,0.000386,-0.003014,0.000195,  12.873
    63.2,0.000373,0.000388,-0.002899,0.000233,  12.877
    63.4,0.000376,0.000390,-0.002809,0.000233,  12.872
    63.6,0.000379,0.000394,-0.002800,0.000195,  12.875
    63.8,0.000386,0.000397,-0.002836,0.000219,  12.878
    64.0,0.000382,0.000397,-0.002926,0.000206,  12.875
    64.2,0.000385,0.000394,-0.002908,0.000168,  12.873
    64.4,0.000388,0.000395,-0.002899,0.000219,  12.873
    64.6,0.000391,0.000393,-0.002856,0.000219,  12.872
    64.8,0.000391,0.000395,-0.002927,0.000182,  12.870
    65.0,0.000396,0.000389,-0.003067,0.000219,  12.870
    65.2,0.000406,0.000388,-0.003253,0.000233,  12.872
    65.4,0.000406,0.000392,-0.003270,0.000219,  12.870
    65.6,0.000403,0.000394,-0.003234,0.000246,  12.874
    65.8,0.000408,0.000395,-0.003129,0.000246,  12.870
    66.0,0.000417,0.000412,-0.003075,0.000222,  12.874
    66.2,0.000430,0.000424,-0.002987,0.000260,  12.875
    66.4,0.000442,0.000434,-0.002907,0.000273,  12.872
    66.6,0.000451,0.000444,-0.002809,0.000286,  12.874
    66.8,0.000465,0.000451,-0.002773,0.000262,  12.870
    67.0,0.000464,0.000454,-0.002756,0.000300,  12.874
    67.2,0.000473,0.000459,-0.002756,0.000313,  12.873
    67.4,0.000482,0.000467,-0.002702,0.000276,  12.872
    67.6,0.000485,0.000470,-0.002631,0.000300,  12.874
    67.8,0.000489,0.000475,-0.002543,0.000313,  12.875
    68.0,0.000492,0.000478,-0.002497,0.000276,  12.873
    68.2,0.000498,0.000477,-0.002453,0.000300,  12.869
    68.4,0.000501,0.000471,-0.002401,0.000313,  12.870
    68.6,0.000504,0.000476,-0.002401,0.000276,  12.876
    68.8,0.000510,0.000476,-0.002428,0.000313,  12.874
    69.0,0.000513,0.000485,-0.002508,0.000327,  12.872
    69.2,0.000516,0.000485,-0.002508,0.000289,  12.873
    69.4,0.000520,0.000493,-0.002474,0.000327,  12.874
    69.6,0.000523,0.000494,-0.002439,0.000340,  12.872
    69.8,0.000520,0.000498,-0.002422,0.000302,  12.874
    70.0,0.000520,0.000500,-0.002414,0.000340,  12.875
    70.2,0.000523,0.000499,-0.002416,0.000340,  12.876
    70.4,0.000523,0.000499,-0.002381,0.000302,  12.875
    70.6,0.000523,0.000504,-0.002346,0.000340,  12.874
    70.8,0.000526,0.000501,-0.002312,0.000340,  12.876
    71.0,0.000523,0.000501,-0.002294,0.000302,  12.876
    71.2,0.000523,0.000498,-0.002287,0.000340,  12.872
    71.4,0.000526,0.000495,-0.002296,0.000340,  12.875
    71.6,0.000523,0.000499,-0.002288,0.000302,  12.877
    71.8,0.000523,0.000494,-0.002306,0.000340,  12.878
    72.0,0.000523,0.000491,-0.002315,0.000340,  12.877
    72.2,0.000518,0.000495,-0.002298,0.000302,  12.882
    72.4,0.000523,0.000491,-0.002263,0.000340,  12.876
    72.6,0.000523,0.000495,-0.002228,0.000340,  12.878
    72.8,0.000523,0.000500,-0.002246,0.000302,  12.883
    73.0,0.000520,0.000497,-0.002299,0.000340,  12.878
    73.2,0.000520,0.000500,-0.002362,0.000340,  12.875
    73.4,0.000520,0.000500,-0.002309,0.000302,  12.881
    73.6,0.000520,0.000503,-0.002228,0.000340,  12.879
    73.8,0.000520,0.000500,-0.002087,0.000340,  12.883
    74.0,0.000520,0.000503,-0.001998,0.000302,  12.882
    74.2,0.000520,0.000503,-0.001927,0.000327,  12.883
    74.4,0.000520,0.000498,-0.001874,0.000313,  12.882
    74.6,0.000516,0.000498,-0.001839,0.000327,  12.880
    74.8,0.000513,0.000493,-0.001821,0.000313,  12.885
    75.0,0.000510,0.000491,-0.001866,0.000313,  12.882
    75.2,0.000507,0.000486,-0.001875,0.000276,  12.883
    75.4,0.000501,0.000478,-0.001875,0.000313,  12.881
    75.6,0.000498,0.000483,-0.001894,0.000300,  12.879
    75.8,0.000495,0.000481,-0.001921,0.000313,  12.883
    76.0,0.000489,0.000471,-0.001911,0.000262,  12.882
    76.2,0.000485,0.000469,-0.001877,0.000286,  12.880
    76.4,0.000479,0.000462,-0.001815,0.000286,  12.883
    76.6,0.000470,0.000452,-0.001842,0.000249,  12.882
    76.8,0.000464,0.000452,-0.001932,0.000273,  12.889
    77.0,0.000454,0.000448,-0.002066,0.000273,  12.886
    77.2,0.000448,0.000440,-0.002066,0.000235,  12.888
    77.4,0.000445,0.000438,-0.002039,0.000260,  12.885
    77.6,0.000436,0.000436,-0.001968,0.000260,  12.885
    77.8,0.000430,0.000435,-0.002523,0.000222,  12.887
    78.0,0.000427,0.000433,-0.003360,0.000246,  12.883
    78.2,0.000424,0.000432,-0.004509,0.000246,  12.887
    78.4,0.000420,0.000423,-0.004534,0.000222,  12.884
    78.6,0.000420,0.000423,-0.004122,0.000246,  12.885
    78.8,0.000414,0.000426,-0.003339,0.000246,  12.887
    79.0,0.000414,0.000427,-0.003093,0.000209,  12.885
    79.2,0.000414,0.000422,-0.002899,0.000233,  12.883
    79.4,0.000411,0.000422,-0.002811,0.000219,  12.879
    79.6,0.000405,0.000419,-0.003259,0.000182,  12.883
    79.8,0.000402,0.000414,-0.003997,0.000219,  12.886
    80.0,0.000402,0.000408,-0.005048,0.000206,  12.884
    80.2,0.000396,0.000411,-0.004995,0.000168,  12.885
    80.4,0.000396,0.000411,-0.004548,0.000206,  12.880
    80.6,0.000389,0.000403,-0.003697,0.000219,  12.879
    80.8,0.000386,0.000398,-0.003451,0.000168,  12.881
    81.0,0.000383,0.000396,-0.003301,0.000193,  12.878
    81.2,0.000386,0.000391,-0.003259,0.000206,  12.882
    81.4,0.000383,0.000392,-0.003374,0.000168,  12.883
    81.6,0.000391,0.000389,-0.003663,0.000206,  12.880
    81.8,0.000386,0.000389,-0.004092,0.000219,  12.882
    82.0,0.000386,0.000387,-0.003968,0.000182,  12.882
    82.2,0.000382,0.000387,-0.003652,0.000206,  12.880
    82.4,0.000385,0.000387,-0.003158,0.000219,  12.882
    82.6,0.000385,0.000389,-0.002965,0.000182,  12.878
    82.8,0.000389,0.000392,-0.002885,0.000206,  12.880
    83.0,0.000397,0.000394,-0.002868,0.000219,  12.880
    83.2,0.000397,0.000392,-0.002824,0.000182,  12.877
    83.4,0.000383,0.000389,-0.002806,0.000206,  12.878
    83.6,0.000386,0.000391,-0.002858,0.000206,  12.879
    83.8,0.000389,0.000388,-0.003103,0.000219,  12.882
    84.0,0.000389,0.000388,-0.003455,0.000219,  12.879
    84.2,0.000393,0.000391,-0.003946,0.000206,  12.879
    84.4,0.000393,0.000392,-0.004015,0.000182,  12.876
    84.6,0.000389,0.000392,-0.003909,0.000206,  12.875
    84.8,0.000393,0.000389,-0.003663,0.000206,  12.878
    85.0,0.000389,0.000389,-0.003249,0.000219,  12.875
    85.2,0.000386,0.000389,-0.003152,0.000182,  12.875
    85.4,0.000389,0.000383,-0.003099,0.000206,  12.876
    85.6,0.000386,0.000389,-0.003064,0.000219,  12.879
    85.8,0.000386,0.000384,-0.003081,0.000182,  12.877
    86.0,0.000386,0.000385,-0.003125,0.000206,  12.874
    86.2,0.000386,0.000386,-0.003188,0.000219,  12.873
    86.4,0.000383,0.000388,-0.003232,0.000182,  12.868
    86.6,0.000383,0.000385,-0.003268,0.000206,  12.872
    86.8,0.000383,0.000386,-0.003312,0.000219,  12.873
    87.0,0.000388,0.000389,-0.003479,0.000182,  12.874
    87.2,0.000380,0.000393,-0.003699,0.000206,  12.873
    87.4,0.000380,0.000388,-0.003997,0.000219,  12.876
    87.6,0.000388,0.000393,-0.003987,0.000182,  12.874
    87.8,0.000380,0.000393,-0.003865,0.000206,  12.871
    88.0,0.000380,0.000391,-0.003663,0.000219,  12.868
    88.2,0.000385,0.000394,-0.003565,0.000182,  12.869
    88.4,0.000377,0.000394,-0.003477,0.000206,  12.869
    88.6,0.000383,0.000394,-0.003416,0.000219,  12.869
    88.8,0.000391,0.000400,-0.003336,0.000182,  12.870
    89.0,0.000383,0.000400,-0.003256,0.000206,  12.870
    89.2,0.000383,0.000394,-0.003185,0.000219,  12.868
    89.4,0.000388,0.000400,-0.003132,0.000219,  12.869
    89.6,0.000380,0.000402,-0.003061,0.000244,  12.868
    89.8,0.000380,0.000391,-0.003034,0.000257,  12.867
    90.0,0.000388,0.000393,-0.002998,0.000257,  12.868
    90.2,0.000388,0.000396,-0.002963,0.000244,  12.867
    90.4,0.000391,0.000388,-0.002954,0.000257,  12.864
    90.6,0.000388,0.000393,-0.002954,0.000244,  12.868
    90.8,0.000388,0.000396,-0.002988,0.000217,  12.867
    91.0,0.000391,0.000390,-0.003025,0.000230,  12.865
    91.2,0.000397,0.000396,-0.003025,0.000244,  12.867
    91.4,0.000403,0.000398,-0.003017,0.000244,  12.869
    91.6,0.000402,0.000393,-0.002999,0.000270,  12.865
    91.8,0.000405,0.000396,-0.002981,0.000270,  12.867
    92.0,0.000412,0.000401,-0.002946,0.000270,  12.870
    92.2,0.000414,0.000400,-0.002937,0.000284,  12.867
    92.4,0.000427,0.000410,-0.002883,0.000297,  12.866
    92.6,0.000443,0.000417,-0.002812,0.000311,  12.865
    92.8,0.000445,0.000424,-0.002759,0.000311,  12.866
    93.0,0.000454,0.000437,-0.002803,0.000324,  12.865
    93.2,0.000468,0.000444,-0.002892,0.000286,  12.868
    93.4,0.000467,0.000451,-0.003044,0.000324,  12.865
    93.6,0.000476,0.000456,-0.003053,0.000337,  12.864
    93.8,0.000482,0.000461,-0.003036,0.000337,  12.863
    94.0,0.000485,0.000468,-0.002965,0.000337,  12.868
    94.2,0.000492,0.000473,-0.002877,0.000351,  12.869
    94.4,0.000495,0.000478,-0.002877,0.000351,  12.869
    94.6,0.000501,0.000480,-0.002904,0.000337,  12.870
    94.8,0.000504,0.000485,-0.002974,0.000351,  12.870
    95.0,0.000501,0.000492,-0.003001,0.000351,  12.867
    95.2,0.000504,0.000489,-0.003037,0.000351,  12.867
    95.4,0.000507,0.000491,-0.003058,0.000364,  12.867
    95.6,0.000507,0.000496,-0.003031,0.000351,  12.868
    95.8,0.000510,0.000493,-0.002996,0.000351,  12.866
    96.0,0.000510,0.000490,-0.002935,0.000364,  12.871
    96.2,0.000510,0.000490,-0.002830,0.000364,  12.868
    96.4,0.000510,0.000492,-0.002749,0.000364,  12.867
    96.6,0.000510,0.000492,-0.002635,0.000378,  12.869
    96.8,0.000510,0.000495,-0.002742,0.000378,  12.873
    97.0,0.000513,0.000495,-0.002971,0.000364,  12.873
    97.2,0.000513,0.000493,-0.003333,0.000378,  12.870
    97.4,0.000513,0.000496,-0.003323,0.000378,  12.873
    97.6,0.000516,0.000493,-0.003166,0.000364,  12.868
    97.8,0.000520,0.000495,-0.002894,0.000378,  12.873
    98.0,0.000516,0.000498,-0.002779,0.000378,  12.874
    98.2,0.000516,0.000498,-0.002683,0.000364,  12.875
    98.4,0.000520,0.000495,-0.002622,0.000378,  12.872
    98.6,0.000516,0.000494,-0.002534,0.000378,  12.871
    98.8,0.000516,0.000491,-0.002463,0.000364,  12.874
    99.0,0.000520,0.000486,-0.002419,0.000378,  12.875
    99.2,0.000512,0.000489,-0.002375,0.000378,  12.873
    99.4,0.000516,0.000483,-0.002350,0.000364,  12.873
    99.6,0.000516,0.000488,-0.002359,0.000378,  12.877
    99.8,0.000516,0.000493,-0.002332,0.000378,  12.870
   100.0,0.000513,0.000495,-0.002307,0.000364,  12.878
   100.2,0.000506,0.000495,-0.002273,0.000378,  12.878
   100.4,0.000506,0.000494,-0.002202,0.000378,  12.877
   100.6,0.000506,0.000488,-0.002123,0.000364,  12.879
   100.8,0.000495,0.000491,-0.002035,0.000364,  12.877
   101.0,0.000495,0.000488,-0.001981,0.000364,  12.878
   101.2,0.000500,0.000486,-0.001927,0.000364,  12.876
   101.4,0.000507,0.000483,-0.001883,0.000351,  12.878
   101.6,0.000501,0.000484,-0.001839,0.000351,  12.874
   101.8,0.000498,0.000482,-0.001812,0.000313,  12.876
   102.0,0.000505,0.000475,-0.001768,0.000337,  12.880
   102.2,0.000499,0.000481,-0.001750,0.000351,  12.880
   102.4,0.000485,0.000476,-0.001812,0.000337,  12.879
   102.6,0.000482,0.000469,-0.001919,0.000324,  12.882
   102.8,0.000476,0.000465,-0.002046,0.000324,  12.880
   103.0,0.000470,0.000460,-0.002038,0.000311,  12.877
   103.2,0.000464,0.000449,-0.002028,0.000297,  12.879
   103.4,0.000454,0.000444,-0.001957,0.000297,  12.878
   103.6,0.000445,0.000444,-0.001948,0.000297,  12.880
   103.8,0.000442,0.000433,-0.001973,0.000284,  12.878
   104.0,0.000439,0.000436,-0.001992,0.000284,  12.882
   104.2,0.000433,0.000434,-0.002019,0.000297,  12.880
   104.4,0.000425,0.000429,-0.002053,0.000284,  12.881
   104.6,0.000425,0.000430,-0.002107,0.000284,  12.879
   104.8,0.000422,0.000428,-0.002098,0.000284,  12.879
   105.0,0.000412,0.000420,-0.002044,0.000270,  12.880
   105.2,0.000409,0.000420,-0.001990,0.000270,  12.882
   105.4,0.000410,0.000423,-0.001998,0.000270,  12.880
   105.6,0.000407,0.000425,-0.002033,0.000270,  12.883
   105.8,0.000404,0.000420,-0.002079,0.000257,  12.879
   106.0,0.000398,0.000420,-0.002052,0.000257,  12.878
   106.2,0.000405,0.000422,-0.002050,0.000257,  12.880
   106.4,0.000408,0.000414,-0.001997,0.000244,  12.880
   106.6,0.000408,0.000420,-0.001978,0.000244,  12.877
   106.8,0.000415,0.000417,-0.001960,0.000244,  12.879
   107.0,0.000415,0.000412,-0.001968,0.000257,  12.876
   107.2,0.000408,0.000409,-0.002003,0.000257,  12.875
   107.4,0.000408,0.000409,-0.002082,0.000244,  12.877
   107.6,0.000405,0.000407,-0.002179,0.000257,  12.877
   107.8,0.000401,0.000410,-0.002550,0.000257,  12.878
   108.0,0.000405,0.000410,-0.003096,0.000244,  12.875
   108.2,0.000408,0.000408,-0.003799,0.000257,  12.875
   108.4,0.000405,0.000411,-0.003868,0.000257,  12.875
   108.6,0.000402,0.000408,-0.003666,0.000244,  12.872
   108.8,0.000405,0.000412,-0.003235,0.000257,  12.874
   109.0,0.000411,0.000412,-0.003155,0.000257,  12.877
   109.2,0.000417,0.000412,-0.003111,0.000257,  12.871
   109.4,0.000420,0.000415,-0.003138,0.000257,  12.874
   109.6,0.000420,0.000419,-0.003048,0.000257,  12.870
   109.8,0.000420,0.000424,-0.002889,0.000257,  12.872
   110.0,0.000420,0.000424,-0.002746,0.000244,  12.875
   110.2,0.000417,0.000423,-0.002746,0.000257,  12.872
   110.4,0.000411,0.000422,-0.002817,0.000206,  12.867
   110.6,0.000404,0.000422,-0.002968,0.000244,  12.871
   110.8,0.000407,0.000412,-0.002985,0.000257,  12.874
   111.0,0.000404,0.000409,-0.002959,0.000257,  12.871
   111.2,0.000404,0.000414,-0.002915,0.000244,  12.871
   111.4,0.000404,0.000412,-0.002852,0.000257,  12.870
   111.6,0.000405,0.000409,-0.002841,0.000257,  12.868
   111.8,0.000412,0.000414,-0.002831,0.000244,  12.866
   112.0,0.000412,0.000412,-0.002804,0.000257,  12.870
   112.2,0.000402,0.000409,-0.002732,0.000257,  12.869
   112.4,0.000402,0.000409,-0.002615,0.000244,  12.864
   112.6,0.000402,0.000409,-0.002474,0.000257,  12.867
   112.8,0.000402,0.000406,-0.002623,0.000257,  12.866
   113.0,0.000399,0.000404,-0.002880,0.000244,  12.869
   113.2,0.000399,0.000405,-0.003235,0.000257,  12.865
   113.4,0.000399,0.000408,-0.003287,0.000257,  12.865
   113.6,0.000396,0.000408,-0.003242,0.000244,  12.865
   113.8,0.000396,0.000405,-0.003083,0.000257,  12.867
   114.0,0.000396,0.000402,-0.003073,0.000257,  12.862
   114.2,0.000402,0.000401,-0.003125,0.000257,  12.861
   114.4,0.000405,0.000412,-0.003196,0.000257,  12.863
   114.6,0.000405,0.000412,-0.003196,0.000257,  12.859
   114.8,0.000408,0.000412,-0.003194,0.000257,  12.859
   115.0,0.000411,0.000409,-0.003150,0.000257,  12.860
   115.2,0.000408,0.000408,-0.003106,0.000257,  12.857
   115.4,0.000408,0.000408,-0.003070,0.000244,  12.861
   115.6,0.000411,0.000407,-0.003009,0.000257,  12.857
   115.8,0.000411,0.000412,-0.002999,0.000257,  12.857
   116.0,0.000411,0.000415,-0.003009,0.000244,  12.862
   116.2,0.000411,0.000409,-0.003070,0.000257,  12.859
   116.4,0.000407,0.000415,-0.003105,0.000257,  12.858
   116.6,0.000411,0.000412,-0.003158,0.000244,  12.858
   116.8,0.000414,0.000412,-0.003212,0.000257,  12.858
   117.0,0.000420,0.000412,-0.003238,0.000257,  12.854
   117.2,0.000420,0.000414,-0.003275,0.000257,  12.855
   117.4,0.000427,0.000417,-0.003311,0.000257,  12.856
   117.6,0.000430,0.000422,-0.003284,0.000257,  12.857
   117.8,0.000433,0.000424,-0.003232,0.000257,  12.852
   118.0,0.000439,0.000424,-0.003179,0.000270,  12.852
   118.2,0.000445,0.000430,-0.003389,0.000284,  12.852
   118.4,0.000448,0.000437,-0.003732,0.000284,  12.855
   118.6,0.000450,0.000439,-0.004205,0.000297,  12.854
   118.8,0.000456,0.000448,-0.004424,0.000297,  12.855
   119.0,0.000466,0.000455,-0.004600,0.000311,  12.849
   119.2,0.000467,0.000460,-0.004714,0.000311,  12.849
   119.4,0.000474,0.000468,-0.004687,0.000324,  12.850
   119.6,0.000484,0.000475,-0.004547,0.000286,  12.849
   119.8,0.000490,0.000478,-0.004337,0.000337,  12.852
   120.0,0.000497,0.000485,-0.004003,0.000351,  12.852
   120.2,0.000503,0.000489,-0.003888,0.000351,  12.851
   120.4,0.000513,0.000493,-0.003801,0.000351,  12.851
   120.6,0.000520,0.000497,-0.003714,0.000364,  12.852
   120.8,0.000523,0.000499,-0.003653,0.000351,  12.856
   121.0,0.000530,0.000504,-0.003619,0.000351,  12.851
   121.2,0.000542,0.000507,-0.003611,0.000364,  12.854
   121.4,0.000540,0.000507,-0.003567,0.000364,  12.851
   121.6,0.000536,0.000514,-0.003532,0.000364,  12.854
   121.8,0.000539,0.000517,-0.003490,0.000378,  12.856
   122.0,0.000541,0.000519,-0.003427,0.000378,  12.856
   122.2,0.000539,0.000519,-0.003304,0.000378,  12.858
   122.4,0.000550,0.000519,-0.003190,0.000378,  12.858
   122.6,0.000553,0.000522,-0.003154,0.000378,  12.855
   122.8,0.000549,0.000522,-0.003128,0.000378,  12.858
   123.0,0.000549,0.000522,-0.003138,0.000378,  12.856
   123.2,0.000549,0.000525,-0.003121,0.000378,  12.859
   123.4,0.000537,0.000525,-0.003130,0.000378,  12.860
   123.6,0.000540,0.000525,-0.003114,0.000378,  12.863
   123.8,0.000537,0.000529,-0.003080,0.000378,  12.865
   124.0,0.000529,0.000532,-0.003070,0.000378,  12.863
   124.2,0.000533,0.000529,-0.003045,0.000378,  12.862
   124.4,0.000537,0.000532,-0.003529,0.000378,  12.864
   124.6,0.000537,0.000538,-0.004266,0.000364,  12.871
   124.8,0.000540,0.000540,-0.005298,0.000378,  12.867
   125.0,0.000540,0.000540,-0.005255,0.000378,  12.868
   125.2,0.000540,0.000539,-0.004791,0.000378,  12.869
   125.4,0.000540,0.000533,-0.003957,0.000378,  12.868
   125.6,0.000537,0.000533,-0.003684,0.000378,  12.867
   125.8,0.000534,0.000528,-0.003474,0.000364,  12.869
   126.0,0.000534,0.000522,-0.003361,0.000415,  12.872
   126.2,0.000542,0.000531,-0.003344,0.000415,  12.872
   126.4,0.000547,0.000533,-0.003441,0.000402,  12.872
   126.6,0.000550,0.000525,-0.003634,0.000453,  12.871
   126.8,0.000550,0.000527,-0.003573,0.000453,  12.874
   127.0,0.000550,0.000527,-0.003476,0.000402,  12.871
   127.2,0.000546,0.000519,-0.003317,0.000415,  12.880
   127.4,0.000546,0.000520,-0.003501,0.000415,  12.875
   127.6,0.000542,0.000518,-0.003808,0.000402,  12.879
   127.8,0.000538,0.000515,-0.004283,0.000415,  12.874
   128.0,0.000535,0.000516,-0.004274,0.000402,  12.879
   128.2,0.000532,0.000516,-0.004116,0.000388,  12.875
   128.4,0.000532,0.000516,-0.003766,0.000388,  12.877
   128.6,0.000523,0.000518,-0.003837,0.000388,  12.872
   128.8,0.000521,0.000516,-0.004073,0.000388,  12.879
   129.0,0.000511,0.000508,-0.004442,0.000375,  12.880
   129.2,0.000510,0.000498,-0.004459,0.000375,  12.876
   129.4,0.000516,0.000494,-0.004371,0.000375,  12.878
   129.6,0.000506,0.000491,-0.004186,0.000362,  12.883
   129.8,0.000499,0.000496,-0.003896,0.000362,  12.878
   130.0,0.000502,0.000489,-0.003763,0.000348,  12.885
   130.2,0.000497,0.000485,-0.003604,0.000335,  12.880
   130.4,0.000487,0.000484,-0.003454,0.000335,  12.884
   130.6,0.000481,0.000482,-0.003356,0.000321,  12.881
   130.8,0.000473,0.000479,-0.003286,0.000308,  12.880
   131.0,0.000470,0.000483,-0.003276,0.000308,  12.879
   131.2,0.000464,0.000480,-0.003320,0.000308,  12.883
   131.4,0.000456,0.000480,-0.003444,0.000308,  12.881
   131.6,0.000453,0.000474,-0.003630,0.000295,  12.884
   131.8,0.000450,0.000467,-0.003681,0.000295,  12.889
   132.0,0.000443,0.000469,-0.003689,0.000295,  12.885
   132.2,0.000443,0.000464,-0.003680,0.000281,  12.884
   132.4,0.000450,0.000465,-0.003669,0.000281,  12.881
   132.6,0.000454,0.000462,-0.003633,0.000295,  12.884
   132.8,0.000454,0.000470,-0.003570,0.000295,  12.888
   133.0,0.000451,0.000464,-0.003620,0.000295,  12.888
   133.2,0.000459,0.000464,-0.003681,0.000295,  12.889
   133.4,0.000459,0.000461,-0.003812,0.000257,  12.889
   133.6,0.000454,0.000461,-0.003827,0.000257,  12.885
   133.8,0.000454,0.000461,-0.003835,0.000244,  12.886
   134.0,0.000454,0.000463,-0.003826,0.000219,  12.888
   134.2,0.000451,0.000467,-0.003877,0.000219,  12.885
   134.4,0.000454,0.000469,-0.003981,0.000244,  12.885
   134.6,0.000454,0.000463,-0.004095,0.000257,  12.886
   134.8,0.000451,0.000467,-0.004182,0.000219,  12.891
   135.0,0.000454,0.000470,-0.004277,0.000206,  12.886
   135.2,0.000458,0.000469,-0.004390,0.000219,  12.888
   135.4,0.000450,0.000477,-0.004459,0.000182,  12.886
   135.6,0.000461,0.000482,-0.004545,0.000206,  12.884
   135.8,0.000467,0.000484,-0.004616,0.000219,  12.889
   136.0,0.000467,0.000487,-0.005131,0.000182,  12.888
   136.2,0.000467,0.000492,-0.005846,0.000206,  12.888
   136.4,0.000470,0.000491,-0.006787,0.000219,  12.889
   136.6,0.000470,0.000496,-0.006882,0.000182,  12.890
   136.8,0.000470,0.000501,-0.006698,0.000206,  12.888
   137.0,0.000473,0.000506,-0.006184,0.000206,  12.894
   137.2,0.000476,0.000514,-0.005991,0.000219,  12.895
   137.4,0.000479,0.000518,-0.005823,0.000219,  12.892
   137.6,0.000478,0.000521,-0.005646,0.000206,  12.894
   137.8,0.000481,0.000523,-0.005567,0.000182,  12.890
   138.0,0.000481,0.000529,-0.005556,0.000206,  12.892
   138.2,0.000477,0.000532,-0.005565,0.000206,  12.891
   138.4,0.000483,0.000530,-0.005643,0.000219,  12.891
   138.6,0.000487,0.000532,-0.005870,0.000182,  12.895
   138.8,0.000487,0.000537,-0.006200,0.000206,  12.894
   139.0,0.000490,0.000537,-0.006618,0.000219,  12.894
   139.2,0.000487,0.000541,-0.006842,0.000182,  12.892
   139.4,0.000498,0.000542,-0.006990,0.000206,  12.896
   139.6,0.000504,0.000555,-0.007060,0.000257,  12.896
   139.8,0.000510,0.000559,-0.007015,0.000244,  12.900
   140.0,0.000524,0.000563,-0.006892,0.000268,  12.895
   140.2,0.000527,0.000569,-0.006682,0.000319,  12.899
   140.4,0.000526,0.000574,-0.006542,0.000319,  12.898
   140.6,0.000532,0.000577,-0.006419,0.000281,  12.901
   140.8,0.000532,0.000577,-0.006321,0.000295,  12.899
   141.0,0.000532,0.000578,-0.006277,0.000295,  12.902
   141.2,0.000535,0.000580,-0.006329,0.000281,  12.902
   141.4,0.000535,0.000578,-0.006441,0.000295,  12.903
   141.6,0.000538,0.000578,-0.006440,0.000295,  12.903
   141.8,0.000544,0.000585,-0.006421,0.000281,  12.904
   142.0,0.000547,0.000588,-0.006385,0.000295,  12.906
   142.2,0.000554,0.000592,-0.006854,0.000295,  12.904
   142.4,0.000563,0.000600,-0.007575,0.000295,  12.909
   142.6,0.000569,0.000604,-0.008521,0.000308,  12.911
   142.8,0.000572,0.000609,-0.008589,0.000308,  12.912
   143.0,0.000578,0.000613,-0.008346,0.000308,  12.914
   143.2,0.000585,0.000625,-0.007799,0.000321,  12.918
   143.4,0.000588,0.000634,-0.007667,0.000321,  12.917
   143.6,0.000591,0.000641,-0.007580,0.000308,  12.917
   143.8,0.000590,0.000651,-0.007546,0.000308,  12.922
   144.0,0.000586,0.000659,-0.007405,0.000308,  12.921
   144.2,0.000590,0.000669,-0.007222,0.000308,  12.924
   144.4,0.000591,0.000670,-0.007012,0.000308,  12.928
   144.6,0.000605,0.000678,-0.006940,0.000335,  12.930
   144.8,0.000611,0.000686,-0.006914,0.000348,  12.932
   145.0,0.000627,0.000701,-0.006965,0.000362,  12.935
   145.2,0.000642,0.000720,-0.007017,0.000375,  12.940
   145.4,0.000661,0.000737,-0.007095,0.000388,  12.940
   145.6,0.000679,0.000757,-0.007233,0.000364,  12.944
   145.8,0.000695,0.000776,-0.007476,0.000364,  12.948
   146.0,0.000704,0.000790,-0.007780,0.000378,  12.949
   146.2,0.000720,0.000809,-0.008179,0.000391,  12.956
   146.4,0.000735,0.000823,-0.008256,0.000353,  12.959
   146.6,0.000748,0.000834,-0.008204,0.000404,  12.961
   146.8,0.000771,0.000854,-0.008072,0.000391,  12.965
   147.0,0.000783,0.000870,-0.007794,0.000404,  12.968
   147.2,0.000798,0.000885,-0.007785,0.000353,  12.978
   147.4,0.000818,0.000897,-0.007794,0.000404,  12.977
   147.6,0.000828,0.000912,-0.007839,0.000404,  12.980
   147.8,0.000826,0.000929,-0.007760,0.000418,  12.986
   148.0,0.000836,0.000937,-0.007664,0.000418,  12.989
   148.2,0.000848,0.000957,-0.007507,0.000418,  12.994
   148.4,0.000865,0.000969,-0.007515,0.000418,  12.995
   148.6,0.000867,0.000975,-0.007585,0.000418,  13.002
   148.8,0.000876,0.000989,-0.007707,0.000418,  13.008
   149.0,0.000890,0.000999,-0.008036,0.000431,  13.007
   149.2,0.000891,0.001008,-0.008495,0.000431,  13.017
   149.4,0.000901,0.001013,-0.009059,0.000445,  13.023
   149.6,0.000914,0.001027,-0.009015,0.000445,  13.024
   149.8,0.000916,0.001042,-0.008788,0.000445,  13.028
   150.0,0.000929,0.001049,-0.008302,0.000458,  13.037
   150.2,0.000938,0.001067,-0.008145,0.000445,  13.040
   150.4,0.000947,0.001084,-0.008066,0.000445,  13.046
   150.6,0.000957,0.001097,-0.008015,0.000496,  13.052
   150.8,0.000970,0.001119,-0.007945,0.000482,  13.055
   151.0,0.000972,0.001139,-0.007910,0.000482,  13.062
   151.2,0.000984,0.001148,-0.007883,0.000533,  13.069
   151.4,0.001001,0.001163,-0.007874,0.000533,  13.076
   151.6,0.001003,0.001180,-0.007866,0.000496,  13.079
   151.8,0.001009,0.001194,-0.007917,0.000509,  13.090
   152.0,0.001023,0.001202,-0.007942,0.000509,  13.092
   152.2,0.001029,0.001213,-0.007978,0.000496,  13.098
   152.4,0.001038,0.001223,-0.008022,0.000471,  13.104
   152.6,0.001037,0.001243,-0.008064,0.000471,  13.111
   152.8,0.001043,0.001260,-0.008081,0.000458,  13.118
   153.0,0.001056,0.001271,-0.008132,0.000434,  13.125
   153.2,0.001068,0.001296,-0.008191,0.000434,  13.125
   153.4,0.001081,0.001313,-0.008217,0.000458,  13.130
   153.6,0.001090,0.001324,-0.008278,0.000471,  13.141
   153.8,0.001099,0.001341,-0.008329,0.000471,  13.142
   154.0,0.001102,0.001357,-0.008372,0.000458,  13.148
   154.2,0.001109,0.001369,-0.008442,0.000458,  13.155
   154.4,0.001115,0.001379,-0.008467,0.000471,  13.161
   154.6,0.001118,0.001393,-0.008466,0.000458,  13.170
   154.8,0.001124,0.001402,-0.008456,0.000445,  13.174
   155.0,0.001127,0.001417,-0.008447,0.000445,  13.179
   155.2,0.001130,0.001425,-0.008437,0.000407,  13.186
   155.4,0.001136,0.001434,-0.008427,0.000445,  13.193
   155.6,0.001143,0.001449,-0.008426,0.000445,  13.196
   155.8,0.001143,0.001453,-0.008502,0.000431,  13.204
   156.0,0.001146,0.001462,-0.008606,0.000418,  13.212
   156.2,0.001149,0.001475,-0.008719,0.000418,  13.213
   156.4,0.001152,0.001482,-0.008753,0.000418,  13.222
   156.6,0.001155,0.001492,-0.008786,0.000418,  13.228
   156.8,0.001158,0.001508,-0.008802,0.000418,  13.237
   157.0,0.001166,0.001520,-0.008861,0.000404,  13.244
   157.2,0.001164,0.001535,-0.008963,0.000391,  13.252
   157.4,0.001174,0.001551,-0.009076,0.000391,  13.257
   157.6,0.001180,0.001563,-0.009178,0.000391,  13.262
   157.8,0.001179,0.001576,-0.009281,0.000391,  13.269
   158.0,0.001185,0.001583,-0.009392,0.000391,  13.274
   158.2,0.001194,0.001591,-0.009477,0.000391,  13.280
   158.4,0.001203,0.001600,-0.009561,0.000391,  13.291
   158.6,0.001207,0.001617,-0.009637,0.000378,  13.297
   158.8,0.001214,0.001630,-0.009782,0.000378,  13.303
   159.0,0.001225,0.001642,-0.009945,0.000378,  13.309
   159.2,0.001243,0.001655,-0.010150,0.000364,  13.319
   159.4,0.001244,0.001665,-0.010269,0.000364,  13.324
   159.6,0.001246,0.001682,-0.010379,0.000364,  13.332
   159.8,0.001261,0.001693,-0.010506,0.000378,  13.342
   160.0,0.001277,0.001710,-0.010650,0.000378,  13.348
   160.2,0.001282,0.001729,-0.010794,0.000378,  13.351
   160.4,0.001291,0.001743,-0.010973,0.000378,  13.362
   160.6,0.001300,0.001760,-0.011142,0.000378,  13.366
   160.8,0.001310,0.001776,-0.011312,0.000378,  13.375
   161.0,0.001308,0.001788,-0.011499,0.000378,  13.383
   161.2,0.001315,0.001806,-0.011685,0.000378,  13.391
   161.4,0.001318,0.001823,-0.011889,0.000378,  13.399
   161.6,0.001324,0.001828,-0.012084,0.000378,  13.403
   161.8,0.001333,0.001845,-0.012296,0.000378,  13.415
   162.0,0.001339,0.001860,-0.012568,0.000364,  13.419
   162.2,0.001341,0.001868,-0.012849,0.000378,  13.427
   162.4,0.001354,0.001886,-0.013052,0.000378,  13.437
   162.6,0.001360,0.001903,-0.013255,0.000364,  13.438
   162.8,0.001369,0.001917,-0.013456,0.000378,  13.454
   163.0,0.001386,0.001935,-0.013718,0.000378,  13.458
   163.2,0.001397,0.001954,-0.013999,0.000378,  13.467
   163.4,0.001401,0.001965,-0.014346,0.000378,  13.471
   163.6,0.001421,0.001982,-0.014539,0.000391,  13.482
   163.8,0.001434,0.002001,-0.014672,0.000353,  13.490
   164.0,0.001439,0.002012,-0.014763,0.000378,  13.494
   164.2,0.001445,0.002032,-0.014811,0.000378,  13.511
   164.4,0.001454,0.002043,-0.015064,0.000378,  13.517
   164.6,0.001456,0.002058,-0.015375,0.000378,  13.518
   164.8,0.001462,0.002072,-0.015738,0.000378,  13.531
   165.0,0.001473,0.002083,-0.015990,0.000378,  13.540
   165.2,0.001478,0.002103,-0.016266,0.000378,  13.547
   165.4,0.001490,0.002120,-0.016517,0.000391,  13.556
   165.6,0.001510,0.002134,-0.016776,0.000391,  13.566
   165.8,0.001515,0.002151,-0.017035,0.000391,  13.580
   166.0,0.001521,0.002170,-0.017303,0.000404,  13.581
   166.2,0.001538,0.002184,-0.017579,0.000404,  13.589
   166.4,0.001543,0.002193,-0.017887,0.000391,  13.605
   166.6,0.001549,0.002203,-0.018189,0.000391,  13.609
   166.8,0.001566,0.002215,-0.018498,0.000391,  13.620
   167.0,0.001568,0.002225,-0.018858,0.000391,  13.628
   167.2,0.001577,0.002240,-0.019209,0.000391,  13.639
   167.4,0.001591,0.002263,-0.019525,0.000391,  13.647
   167.6,0.001590,0.002275,-0.019833,0.000391,  13.653
   167.8,0.001611,0.002287,-0.020141,0.000391,  13.668
   168.0,0.001629,0.002297,-0.020431,0.000391,  13.676
   168.2,0.001631,0.002313,-0.020713,0.000391,  13.683
   168.4,0.001643,0.002329,-0.021003,0.000391,  13.696
   168.6,0.001655,0.002351,-0.021293,0.000404,  13.705
   168.8,0.001664,0.002368,-0.021616,0.000404,  13.714
   169.0,0.001679,0.002377,-0.021938,0.000404,  13.725
   169.2,0.001696,0.002389,-0.022269,0.000380,  13.737
   169.4,0.001705,0.002404,-0.022618,0.000380,  13.749
   169.6,0.001707,0.002415,-0.022991,0.000380,  13.760
   169.8,0.001721,0.002433,-0.023296,0.000343,  13.772
   170.0,0.001719,0.002447,-0.023543,0.000380,  13.783
   170.2,0.001735,0.002464,-0.023806,0.000380,  13.794
   170.4,0.001740,0.002481,-0.024094,0.000356,  13.809
   170.6,0.001748,0.002498,-0.024391,0.000394,  13.828
   170.8,0.001767,0.002514,-0.024679,0.000407,  13.838
   171.0,0.001785,0.002536,-0.024950,0.000396,  13.854
   171.2,0.001801,0.002557,-0.025245,0.000447,  13.869
   171.4,0.001823,0.002578,-0.025524,0.000461,  13.881
   171.6,0.001851,0.002610,-0.026141,0.000487,  13.894
   171.8,0.001875,0.002637,-0.026965,0.000501,  13.911
   172.0,0.001900,0.002658,-0.027959,0.000501,  13.929
   172.2,0.001922,0.002688,-0.028294,0.000514,  13.948
   172.4,0.001944,0.002712,-0.028407,0.000528,  13.963
   172.6,0.001966,0.002731,-0.028291,0.000565,  13.975
   172.8,0.001987,0.002757,-0.027952,0.000579,  13.995
   173.0,0.002010,0.002779,-0.028025,0.000579,  14.009
   173.2,0.002025,0.002801,-0.028122,0.000592,  14.024
   173.4,0.002046,0.002822,-0.028236,0.000605,  14.044
   173.6,0.002072,0.002841,-0.028342,0.000605,  14.060
   173.8,0.002084,0.002858,-0.028480,0.000605,  14.079
   174.0,0.002102,0.002873,-0.028595,0.000632,  14.094
   174.2,0.002122,0.002892,-0.028685,0.000632,  14.115
   174.4,0.002133,0.002912,-0.028775,0.000632,  14.136
   174.6,0.002152,0.002932,-0.028857,0.000646,  14.150
   174.8,0.002172,0.002947,-0.029267,0.000659,  14.172
   175.0,0.002177,0.002959,-0.029832,0.000646,  14.183
   175.2,0.002193,0.002969,-0.030551,0.000646,  14.204
   175.4,0.002206,0.002974,-0.030658,0.000622,  14.228
   175.6,0.002211,0.002986,-0.030511,0.000622,  14.245
   175.8,0.002227,0.003000,-0.030128,0.000622,  14.271
   176.0,0.002247,0.003014,-0.029933,0.000584,  14.284
   176.2,0.002252,0.003026,-0.029713,0.000622,  14.302
   176.4,0.002258,0.003033,-0.029470,0.000622,  14.330
   176.6,0.002272,0.003041,-0.029144,0.000635,  14.348
   176.8,0.002273,0.003037,-0.028776,0.000673,  14.366
   177.0,0.002277,0.003045,-0.028344,0.000673,  14.387
   177.2,0.002287,0.003052,-0.027837,0.000686,  14.410
   177.4,0.002286,0.003053,-0.027272,0.000673,  14.438
   177.6,0.002289,0.003052,-0.026624,0.000673,  14.453
   177.8,0.002296,0.003062,-0.026050,0.000686,  14.481
   178.0,0.002292,0.003062,-0.025474,0.000673,  14.501
   178.2,0.002292,0.003059,-0.024874,0.000673,  14.521
   178.4,0.002299,0.003058,-0.024264,0.000648,  14.546
   178.6,0.002299,0.003054,-0.023670,0.000635,  14.566
   178.8,0.002299,0.003057,-0.023060,0.000635,  14.590
   179.0,0.002296,0.003054,-0.022632,0.000597,  14.617
   179.2,0.002293,0.003049,-0.022329,0.000622,  14.638
   179.4,0.002290,0.003045,-0.022111,0.000622,  14.660
   179.6,0.002284,0.003039,-0.021833,0.000571,  14.683
   179.8,0.002278,0.003030,-0.021580,0.000595,  14.702
   180.0,0.002261,0.003019,-0.021337,0.000581,  14.722
   180.2,0.002248,0.003011,-0.020457,0.000544,  14.746
   180.4,0.002240,0.002998,-0.019271,0.000581,  14.772
   180.6,0.002224,0.002991,-0.017770,0.000581,  14.787
   180.8,0.002214,0.002975,-0.016848,0.000568,  14.806
   181.0,0.002206,0.002960,-0.016086,0.000568,  14.832
   181.2,0.002183,0.002940,-0.015451,0.000541,  14.854
   181.4,0.002165,0.002925,-0.014659,0.000514,  14.875
   181.6,0.002147,0.002906,-0.013873,0.000501,  14.896
   181.8,0.002121,0.002886,-0.013110,0.000512,  14.916
   182.0,0.002099,0.002862,-0.012320,0.000498,  14.936
   182.2,0.002085,0.002842,-0.011488,0.000485,  14.951
   182.4,0.002056,0.002821,-0.010638,0.000458,  14.982
   182.6,0.002034,0.002802,-0.009754,0.000445,  14.996
   182.8,0.002020,0.002781,-0.008874,0.000431,  15.015
   183.0,0.001997,0.002759,-0.008009,0.000404,  15.038
   183.2,0.001981,0.002743,-0.007110,0.000391,  15.065
   183.4,0.001969,0.002724,-0.006164,0.000391,  15.085
   183.6,0.001956,0.002707,-0.005189,0.000364,  15.100
   183.8,0.001941,0.002693,-0.004194,0.000364,  15.124
   184.0,0.001929,0.002676,-0.003356,0.000351,  15.142
   184.2,0.001907,0.002661,-0.002596,0.000337,  15.166
   184.4,0.001885,0.002641,-0.001914,0.000337,  15.190
   184.6,0.001874,0.002627,-0.001160,0.000324,  15.204
   184.8,0.001851,0.002608,-0.000422,0.000297,  15.224
   185.0,0.001835,0.002589,0.000290,0.000284,  15.244
   185.2,0.001819,0.002568,0.001023,0.000270,  15.264
   185.4,0.001810,0.002552,0.001799,0.000257,  15.284
   185.6,0.001801,0.002533,0.002534,0.000244,  15.299
   185.8,0.001792,0.002522,0.003271,0.000244,  15.318
   186.0,0.001782,0.002507,0.003999,0.000244,  15.339
   186.2,0.001767,0.002491,0.004718,0.000257,  15.358
   186.4,0.001755,0.002464,0.005395,0.000244,  15.383
   186.6,0.001736,0.002442,0.006082,0.000217,  15.396
   186.8,0.001723,0.002428,0.006724,0.000230,  15.415
   187.0,0.001711,0.002416,0.007452,0.000217,  15.432
   187.2,0.001698,0.002397,0.008234,0.000203,  15.450
   187.4,0.001689,0.002374,0.009037,0.000203,  15.469
   187.6,0.001677,0.002363,0.009761,0.000190,  15.478
   187.8,0.001675,0.002344,0.010467,0.000177,  15.497
   188.0,0.001669,0.002333,0.011145,0.000177,  15.516
   188.2,0.001659,0.002324,0.011781,0.000177,  15.528
   188.4,0.001646,0.002312,0.012390,0.000163,  15.546
   188.6,0.001636,0.002289,0.012954,0.000163,  15.559
   188.8,0.001624,0.002270,0.013480,0.000163,  15.570
   189.0,0.001616,0.002247,0.013917,0.000150,  15.584
   189.2,0.001596,0.002228,0.014298,0.000150,  15.599
   189.4,0.001580,0.002206,0.014774,0.000150,  15.617
   189.6,0.001572,0.002185,0.015269,0.000136,  15.625
   189.8,0.001552,0.002166,0.015738,0.000123,  15.635
   190.0,0.001537,0.002153,0.016153,0.000123,  15.644
   190.2,0.001529,0.002139,0.016517,0.000072,  15.655
   190.4,0.001512,0.002111,0.016879,0.000096,  15.665
   190.6,0.001503,0.002099,0.017171,0.000110,  15.671
   190.8,0.001498,0.002080,0.017580,0.000096,  15.681
   191.0,0.001475,0.002054,0.017972,0.000083,  15.688
   191.2,0.001459,0.002030,0.018397,0.000083,  15.697
   191.4,0.001448,0.002009,0.018789,0.000083,  15.703
   191.6,0.001425,0.001987,0.019174,0.000070,  15.709
   191.8,0.001413,0.001963,0.019540,0.000070,  15.713
   192.0,0.001408,0.001944,0.019814,0.000070,  15.715
   192.2,0.001388,0.001927,0.020038,0.000043,  15.718
   192.4,0.001372,0.001916,0.020153,0.000029,  15.717
   192.6,0.001364,0.001902,0.020343,0.000029,  15.721
   192.8,0.001347,0.001885,0.020515,0.000016,  15.724
   193.0,0.001335,0.001861,0.020687,0.000003,  15.724
   193.2,0.001323,0.001845,0.020870,0.000003,  15.723
   193.4,0.001307,0.001821,0.021034,0.000003,  15.717
   193.6,0.001292,0.001794,0.021183,0.000016,  15.717
   193.8,0.001273,0.001765,0.021340,0.000003,  15.713
   194.0,0.001257,0.001740,0.021442,-0.000011,  15.712
   194.2,0.001245,0.001725,0.021526,0.000003,  15.704
   194.4,0.001233,0.001710,0.021149,-0.000011,  15.698
   194.6,0.001223,0.001694,0.020510,-0.000024,  15.694
   194.8,0.001211,0.001678,0.019628,-0.000011,  15.686
   195.0,0.001202,0.001659,0.019599,-0.000062,  15.677
   195.2,0.001195,0.001642,0.019870,-0.000075,  15.670
   195.4,0.001186,0.001626,0.020440,-0.000075,  15.654
   195.6,0.001177,0.001609,0.020638,-0.000113,  15.647
   195.8,0.001167,0.001590,0.020781,-0.000089,  15.636
   196.0,0.001151,0.001568,0.020878,-0.000089,  15.626
   196.2,0.001138,0.001552,0.020967,-0.000126,  15.609
   196.4,0.001129,0.001535,0.021008,-0.000102,  15.593
   196.6,0.001120,0.001515,0.021040,-0.000102,  15.576
   196.8,0.001118,0.001497,0.020959,-0.000140,  15.555
   197.0,0.001109,0.001480,0.020812,-0.000115,  15.539
   197.2,0.001110,0.001468,0.020588,-0.000115,  15.518
   197.4,0.001100,0.001453,0.020348,-0.000140,  15.489
   197.6,0.001084,0.001437,0.020062,-0.000115,  15.471
   197.8,0.001078,0.001423,0.019721,-0.000115,  15.448
   198.0,0.001068,0.001420,0.019523,-0.000102,  15.423
   198.2,0.001062,0.001403,0.019356,-0.000115,  15.395
   198.4,0.001056,0.001385,0.019254,-0.000115,  15.363
   198.6,0.001047,0.001373,0.019075,-0.000140,  15.340
   198.8,0.001040,0.001361,0.018859,-0.000102,  15.311
   199.0,0.001037,0.001355,0.018631,-0.000115,  15.281
   199.2,0.001037,0.001347,0.018392,-0.000115,  15.245
   199.4,0.001040,0.001334,0.018093,-0.000102,  15.207
   199.6,0.001040,0.001324,0.017793,-0.000064,  15.183
   199.8,0.001040,0.001313,0.017420,-0.000064,  15.152
   200.0,0.001040,0.001303,0.017104,-0.000051,  15.119
   200.2,0.001037,0.001295,0.016806,-0.000051,  15.083
   200.4,0.001038,0.001286,0.016517,-0.000038,  15.040
   200.6,0.001041,0.001279,0.015951,-0.000062,  15.013
   200.8,0.001033,0.001267,0.015256,-0.000062,  14.979
   201.0,0.001037,0.001265,0.014423,-0.000048,  14.941
   201.2,0.001037,0.001258,0.014110,-0.000086,  14.906
   201.4,0.001029,0.001247,0.013953,-0.000062,  14.865
   201.6,0.001037,0.001237,0.013980,-0.000048,  14.831
   201.8,0.001037,0.001235,0.013692,-0.000086,  14.796
   202.0,0.001029,0.001231,0.013320,-0.000048,  14.758
   202.2,0.001032,0.001221,0.012857,-0.000035,  14.721
   202.4,0.001032,0.001220,0.012563,-0.000035,  14.674
   202.6,0.001028,0.001213,0.012296,0.000003,  14.646
   202.8,0.001028,0.001203,0.012065,0.000029,  14.612
   203.0,0.001035,0.001193,0.011835,0.000029,  14.574
   203.2,0.001031,0.001191,0.011587,0.000029,  14.536
   203.4,0.001031,0.001182,0.011382,0.000043,  14.486
   203.6,0.001042,0.001182,0.011152,0.000056,  14.461
   203.8,0.001037,0.001180,0.010912,0.000043,  14.424
   204.0,0.001037,0.001169,0.010646,0.000043,  14.388
   204.2,0.001045,0.001168,0.010234,0.000070,  14.351
   204.4,0.001040,0.001165,0.009756,0.000070,  14.303
   204.6,0.001040,0.001155,0.009179,0.000083,  14.276
   204.8,0.001045,0.001158,0.008894,0.000083,  14.241
   205.0,0.001048,0.001153,0.008744,0.000083,  14.210
   205.2,0.001051,0.001143,0.008685,0.000096,  14.174
   205.4,0.001054,0.001139,0.008510,0.000096,  14.134
   205.6,0.001054,0.001134,0.008360,0.000110,  14.108
   205.8,0.001054,0.001129,0.008174,0.000123,  14.078
   206.0,0.001061,0.001134,0.008044,0.000123,  14.042
   206.2,0.001061,0.001129,0.007958,0.000136,  14.012
   206.4,0.001054,0.001125,0.007873,0.000150,  13.977
   206.6,0.001057,0.001125,0.007706,0.000150,  13.953
   206.8,0.001054,0.001121,0.007519,0.000150,  13.928
   207.0,0.001047,0.001113,0.007312,0.000163,  13.902
   207.2,0.001050,0.001104,0.007160,0.000163,  13.874
   207.4,0.001054,0.001097,0.006991,0.000150,  13.838
   207.6,0.001043,0.001090,0.006830,0.000150,  13.819
   207.8,0.001051,0.001085,0.006688,0.000163,  13.796
   208.0,0.001055,0.001079,0.006590,0.000150,  13.771
   208.2,0.001045,0.001069,0.006476,0.000150,  13.750
   208.4,0.001045,0.001064,0.006415,0.000163,  13.720
   208.6,0.001048,0.001057,0.006400,0.000112,  13.700
   208.8,0.001040,0.001049,0.006384,0.000150,  13.675
   209.0,0.001037,0.001045,0.006404,0.000150,  13.658
   209.2,0.001038,0.001034,0.006353,0.000150,  13.633
   209.4,0.001031,0.001026,0.006264,0.000150,  13.607
   209.6,0.001028,0.001028,0.006166,0.000150,  13.589
   209.8,0.001026,0.001020,0.006060,0.000150,  13.570
   210.0,0.001015,0.001010,0.005944,0.000150,  13.545
   210.2,0.001015,0.001008,0.005827,0.000150,  13.527
   210.4,0.001020,0.001006,0.005811,0.000150,  13.501
   210.6,0.001009,0.001003,0.005858,0.000150,  13.487
   210.8,0.001009,0.001001,0.005958,0.000150,  13.468
   211.0,0.001017,0.000996,0.005868,0.000150,  13.448
   211.2,0.001012,0.000994,0.005680,0.000150,  13.429
   211.4,0.001006,0.000991,0.005384,0.000150,  13.406
   211.6,0.001000,0.000986,0.005268,0.000150,  13.392
   211.8,0.001000,0.000981,0.005215,0.000150,  13.377
   212.0,0.000997,0.000976,0.005182,0.000150,  13.357
   212.2,0.000994,0.000975,0.005149,0.000163,  13.339
   212.4,0.000991,0.000968,0.005115,0.000163,  13.321
   212.6,0.000988,0.000966,0.005125,0.000163,  13.305
   212.8,0.000981,0.000964,0.005072,0.000177,  13.288
   213.0,0.000981,0.000962,0.004974,0.000163,  13.273
   213.2,0.000978,0.000954,0.004857,0.000163,  13.258
   213.4,0.000978,0.000954,0.004822,0.000177,  13.238
   213.6,0.000981,0.000948,0.004761,0.000177,  13.231
   213.8,0.000978,0.000945,0.004726,0.000214,  13.210
   214.0,0.000975,0.000942,0.004681,0.000214,  13.196
   214.2,0.000978,0.000940,0.004618,0.000214,  13.183
   214.4,0.000978,0.000937,0.004521,0.000214,  13.166
   214.6,0.000977,0.000938,0.004476,0.000214,  13.156
   214.8,0.000984,0.000936,0.004441,0.000177,  13.145
   215.0,0.000984,0.000925,0.004398,0.000139,  13.126
   215.2,0.000984,0.000926,0.004390,0.000152,  13.116
   215.4,0.000981,0.000925,0.004364,0.000190,  13.098
   215.6,0.000981,0.000921,0.004356,0.000190,  13.093
   215.8,0.000978,0.000920,0.004376,0.000203,  13.079
   216.0,0.000969,0.000917,0.004378,0.000190,  13.072
   216.2,0.000969,0.000912,0.004380,0.000190,  13.056
   216.4,0.000969,0.000911,0.004345,0.000190,  13.044
   216.6,0.000973,0.000905,0.004282,0.000203,  13.033
   216.8,0.000966,0.000903,0.004175,0.000203,  13.025
   217.0,0.000966,0.000907,0.004104,0.000203,  13.017
   217.2,0.000963,0.000905,0.004024,0.000166,  13.010
   217.4,0.000963,0.000897,0.003952,0.000203,  12.995
   217.6,0.000963,0.000892,0.003917,0.000217,  12.983
   217.8,0.000960,0.000889,0.003909,0.000203,  12.979
   218.0,0.000957,0.000887,0.003919,0.000203,  12.969
   218.2,0.000953,0.000888,0.003946,0.000217,  12.959
   218.4,0.000958,0.000888,0.003928,0.000203,  12.951
   218.6,0.000950,0.000885,0.003876,0.000203,  12.945
   218.8,0.000944,0.000888,0.003805,0.000217,  12.936
   219.0,0.000952,0.000890,0.003538,0.000217,  12.929
   219.2,0.000944,0.000882,0.003180,0.000217,  12.923
   219.4,0.000941,0.000877,0.002688,0.000230,  12.912
   219.6,0.000942,0.000874,0.002680,0.000230,  12.903
   219.8,0.000935,0.000874,0.002868,0.000217,  12.898
   220.0,0.000935,0.000872,0.003219,0.000230,  12.889
   220.2,0.000939,0.000870,0.003273,0.000230,  12.886
   220.4,0.000929,0.000867,0.003281,0.000217,  12.874
   220.6,0.000929,0.000865,0.003201,0.000230,  12.871
   220.8,0.000933,0.000860,0.003203,0.000230,  12.863
   221.0,0.000926,0.000858,0.003230,0.000217,  12.858
   221.2,0.000922,0.000858,0.003257,0.000230,  12.853
   221.4,0.000930,0.000860,0.003195,0.000230,  12.844
   221.6,0.000926,0.000860,0.003070,0.000217,  12.842
   221.8,0.000922,0.000852,0.002934,0.000230,  12.836
   222.0,0.000927,0.000850,0.002917,0.000230,  12.833
   222.2,0.000922,0.000847,0.002917,0.000230,  12.824
   222.4,0.000919,0.000844,0.002954,0.000244,  12.817
   222.6,0.000924,0.000842,0.002946,0.000230,  12.812
   222.8,0.000921,0.000836,0.002936,0.000230,  12.805
   223.0,0.000924,0.000839,0.002901,0.000244,  12.803
   223.2,0.000921,0.000835,0.002893,0.000230,  12.795
   223.4,0.000921,0.000829,0.002901,0.000230,  12.786
   223.6,0.000924,0.000835,0.002884,0.000257,  12.781
   223.8,0.000930,0.000832,0.002868,0.000257,  12.783
   224.0,0.000933,0.000832,0.002878,0.000270,  12.772
   224.2,0.000935,0.000837,0.002879,0.000284,  12.770
   224.4,0.000938,0.000843,0.002899,0.000297,  12.763
   224.6,0.000952,0.000842,0.002910,0.000297,  12.759
   224.8,0.000953,0.000849,0.002939,0.000297,  12.754
   225.0,0.000957,0.000856,0.002895,0.000311,  12.750
   225.2,0.000960,0.000855,0.002815,0.000311,  12.749
   225.4,0.000963,0.000863,0.002681,0.000311,  12.740
   225.6,0.000969,0.000866,0.002665,0.000324,  12.740
   225.8,0.000969,0.000868,0.002737,0.000324,  12.737
   226.0,0.000972,0.000869,0.002826,0.000324,  12.728
   226.2,0.000975,0.000877,0.002836,0.000337,  12.726
   226.4,0.000975,0.000880,0.002828,0.000300,  12.719
   226.6,0.000978,0.000872,0.002836,0.000337,  12.719
   226.8,0.000978,0.000872,0.002791,0.000351,  12.715
   227.0,0.000978,0.000872,0.002747,0.000351,  12.717
   227.2,0.000981,0.000870,0.002665,0.000351,  12.712
   227.4,0.000978,0.000873,0.002574,0.000364,  12.705
   227.6,0.000975,0.000870,0.002502,0.000327,  12.705
   227.8,0.000978,0.000869,0.002430,0.000327,  12.704
   228.0,0.000975,0.000870,0.002341,0.000340,  12.699
   228.2,0.000980,0.000870,0.002323,0.000302,  12.695
   228.4,0.000972,0.000868,0.002331,0.000327,  12.693
   228.6,0.000969,0.000871,0.002341,0.000340,  12.691
   228.8,0.000973,0.000870,0.002350,0.000302,  12.688
   229.0,0.000966,0.000870,0.002341,0.000327,  12.687
   229.2,0.000966,0.000866,0.002323,0.000340,  12.682
   229.4,0.000963,0.000863,0.002315,0.000302,  12.679
   229.6,0.000963,0.000863,0.002323,0.000327,  12.676
   229.8,0.000966,0.000861,0.002306,0.000340,  12.677
   230.0,0.000963,0.000862,0.002342,0.000302,  12.672
   230.2,0.000952,0.000856,0.002414,0.000327,  12.671
   230.4,0.000952,0.000856,0.002496,0.000340,  12.667
   230.6,0.000949,0.000856,0.002496,0.000302,  12.669
   230.8,0.000939,0.000848,0.002469,0.000327,  12.668
   231.0,0.000935,0.000847,0.002405,0.000340,  12.665
   231.2,0.000943,0.000843,0.002414,0.000302,  12.660
   231.4,0.000943,0.000837,0.002441,0.000340,  12.659
   231.6,0.000935,0.000833,0.002469,0.000340,  12.658
   231.8,0.000940,0.000833,0.002505,0.000302,  12.658
   232.0,0.000937,0.000836,0.002507,0.000340,  12.656
   232.2,0.000929,0.000832,0.002560,0.000340,  12.651
   232.4,0.000934,0.000832,0.002426,0.000302,  12.647
   232.6,0.000931,0.000830,0.002175,0.000340,  12.648
   232.8,0.000935,0.000831,0.001836,0.000340,  12.647
   233.0,0.000932,0.000828,0.001801,0.000302,  12.648
   233.2,0.000929,0.000826,0.001906,0.000327,  12.645
   233.4,0.000933,0.000822,0.002092,0.000340,  12.644
   233.6,0.000930,0.000823,0.002226,0.000289,  12.644
   233.8,0.000919,0.000816,0.002362,0.000313,  12.641
   234.0,0.000919,0.000813,0.002540,0.000313,  12.638
   234.2,0.000913,0.000811,0.002603,0.000313,  12.639
   234.4,0.000904,0.000803,0.002620,0.000313,  12.636
   234.6,0.000898,0.000804,0.002601,0.000300,  12.636
   234.8,0.000891,0.000796,0.002519,0.000262,  12.634
   235.0,0.000879,0.000786,0.002554,0.000300,  12.632
   235.2,0.000862,0.000779,0.002582,0.000286,  12.630
   235.4,0.000859,0.000774,0.002636,0.000286,  12.629
   235.6,0.000850,0.000766,0.002663,0.000249,  12.624
   235.8,0.000836,0.000759,0.002663,0.000273,  12.626
   236.0,0.000827,0.000754,0.002653,0.000273,  12.629
   236.2,0.000825,0.000744,0.002385,0.000273,  12.618
   236.4,0.000822,0.000742,0.001948,0.000284,  12.618
   236.6,0.000816,0.000738,0.001386,0.000284,  12.620
   236.8,0.000813,0.000734,0.001396,0.000297,  12.618
   237.0,0.000810,0.000729,0.001593,0.000284,  12.620
   237.2,0.000807,0.000721,0.001987,0.000284,  12.616
   237.4,0.000800,0.000718,0.002138,0.000284,  12.613
   237.6,0.000797,0.000714,0.002237,0.000270,  12.615
   237.8,0.000791,0.000712,0.002300,0.000270,  12.613
   238.0,0.000785,0.000705,0.002399,0.000270,  12.613
   238.2,0.000779,0.000697,0.002488,0.000270,  12.612
   238.4,0.000775,0.000692,0.002570,0.000257,  12.605
   238.6,0.000766,0.000695,0.002579,0.000257,  12.608
   238.8,0.000766,0.000690,0.002560,0.000257,  12.606
   239.0,0.000766,0.000692,0.002496,0.000244,  12.608
   239.2,0.000769,0.000695,0.002488,0.000244,  12.604
   239.4,0.000769,0.000687,0.002505,0.000257,  12.603
   239.6,0.000766,0.000690,0.002533,0.000257,  12.602
   239.8,0.000760,0.000691,0.002505,0.000257,  12.601
   240.0,0.000757,0.000687,0.002434,0.000257,  12.599
   240.2,0.000757,0.000687,0.002327,0.000257,  12.598
   240.4,0.000754,0.000690,0.002292,0.000257,  12.595
   240.6,0.000751,0.000684,0.002274,0.000257,  12.591
   240.8,0.000743,0.000687,0.002266,0.000257,  12.593
   241.0,0.000748,0.000686,0.002008,0.000257,  12.593
   241.2,0.000748,0.000680,0.001616,0.000257,  12.589
   241.4,0.000743,0.000680,0.001089,0.000257,  12.588
   241.6,0.000748,0.000686,0.001089,0.000257,  12.589
   241.8,0.000748,0.000683,0.001234,0.000257,  12.588
   242.0,0.000751,0.000677,0.001583,0.000257,  12.587
   242.2,0.000748,0.000677,0.001691,0.000257,  12.587
   242.4,0.000748,0.000674,0.001789,0.000257,  12.584
   242.6,0.000755,0.000672,0.001833,0.000257,  12.584
   242.8,0.000752,0.000675,0.001897,0.000257,  12.582
   243.0,0.000746,0.000672,0.001942,0.000257,  12.579
   243.2,0.000753,0.000672,0.001969,0.000257,  12.576
   243.4,0.000756,0.000669,0.001996,0.000257,  12.576
   243.6,0.000746,0.000669,0.001998,0.000244,  12.572
   243.8,0.000738,0.000667,0.002015,0.000281,  12.575
   244.0,0.000741,0.000668,0.002015,0.000332,  12.576
   244.2,0.000738,0.000660,0.001980,0.000332,  12.571
   244.4,0.000731,0.000660,0.001926,0.000295,  12.570
   244.6,0.000731,0.000659,0.001829,0.000257,  12.569
   244.8,0.000732,0.000656,0.001856,0.000257,  12.563
   245.0,0.000732,0.000659,0.001893,0.000257,  12.567
   245.2,0.000735,0.000666,0.001957,0.000257,  12.566
   245.4,0.000732,0.000666,0.001984,0.000244,  12.558
   245.6,0.000729,0.000660,0.001984,0.000268,  12.563
   245.8,0.000729,0.000663,0.001959,0.000281,  12.559
   246.0,0.000723,0.000663,0.001959,0.000281,  12.560
   246.2,0.000723,0.000658,0.001924,0.000244,  12.558
   246.4,0.000717,0.000655,0.001861,0.000219,  12.554
   246.6,0.000713,0.000652,0.001855,0.000219,  12.553
   246.8,0.000717,0.000649,0.001883,0.000257,  12.556
   247.0,0.000713,0.000648,0.001902,0.000257,  12.554
   247.2,0.000713,0.000648,0.001877,0.000257,  12.551
   247.4,0.000713,0.000641,0.001797,0.000257,  12.545
   247.6,0.000713,0.000639,0.001733,0.000257,  12.548
   247.8,0.000710,0.000640,0.001047,0.000257,  12.549
   248.0,0.000710,0.000632,-0.000008,0.000257,  12.544
   248.2,0.000707,0.000638,-0.001354,0.000257,  12.542
   248.4,0.000701,0.000643,-0.001477,0.000257,  12.540
   248.6,0.000698,0.000640,-0.001143,0.000257,  12.540
   248.8,0.000698,0.000640,-0.000348,0.000257,  12.544
   249.0,0.000695,0.000640,-0.000045,0.000257,  12.536
   249.2,0.000695,0.000637,0.000248,0.000257,  12.536
   249.4,0.000698,0.000634,0.000524,0.000257,  12.530
   249.6,0.000695,0.000631,0.000702,0.000257,  12.530
   249.8,0.000702,0.000633,0.000791,0.000257,  12.528
   250.0,0.000701,0.000633,0.000801,0.000270,  12.529
   250.2,0.000704,0.000633,0.000845,0.000284,  12.530
   250.4,0.000710,0.000633,0.000820,0.000284,  12.524
   250.6,0.000712,0.000642,0.000776,0.000297,  12.522
   250.8,0.000722,0.000648,0.000803,0.000324,  12.525
   251.0,0.000735,0.000650,0.000822,0.000311,  12.524
   251.2,0.000744,0.000663,0.000849,0.000311,  12.522
   251.4,0.000751,0.000672,0.000895,0.000324,  12.521
   251.6,0.000757,0.000676,0.000949,0.000324,  12.519
   251.8,0.000763,0.000681,0.001021,0.000324,  12.517
   252.0,0.000766,0.000680,0.001031,0.000337,  12.516
   252.2,0.000769,0.000679,0.001048,0.000300,  12.517
   252.4,0.000772,0.000693,0.001013,0.000337,  12.513
   252.6,0.000775,0.000696,0.000969,0.000351,  12.512
   252.8,0.000779,0.000698,0.000887,0.000351,  12.509
   253.0,0.000785,0.000698,0.000754,0.000351,  12.508
   253.2,0.000785,0.000704,0.000566,0.000364,  12.510
   253.4,0.000785,0.000706,0.000549,0.000351,  12.506
   253.6,0.000788,0.000703,0.000603,0.000351,  12.506
   253.8,0.000791,0.000711,0.000702,0.000364,  12.504
   254.0,0.000791,0.000710,0.000746,0.000351,  12.504
   254.2,0.000798,0.000710,0.000800,0.000351,  12.501
   254.4,0.000795,0.000714,0.000827,0.000364,  12.501
   254.6,0.000792,0.000714,0.000792,0.000351,  12.499
   254.8,0.000792,0.000710,0.000738,0.000351,  12.502
   255.0,0.000795,0.000713,0.000647,0.000364,  12.493
   255.2,0.000788,0.000713,0.000647,0.000351,  12.497
   255.4,0.000780,0.000712,0.000665,0.000351,  12.496
   255.6,0.000784,0.000714,0.000719,0.000364,  12.496
   255.8,0.000788,0.000713,0.000709,0.000364,  12.494
   256.0,0.000789,0.000716,0.000665,0.000364,  12.495
   256.2,0.000801,0.000710,0.000584,0.000378,  12.495
   256.4,0.000803,0.000711,0.000638,0.000378,  12.486
   256.6,0.000803,0.000708,0.000746,0.000364,  12.492
   256.8,0.000803,0.000708,0.000897,0.000378,  12.492
   257.0,0.000799,0.000710,0.000897,0.000378,  12.489
   257.2,0.000795,0.000707,0.000825,0.000364,  12.486
   257.4,0.000790,0.000713,0.000708,0.000378,  12.488
   257.6,0.000793,0.000715,0.000762,0.000378,  12.491
   257.8,0.000797,0.000712,0.000878,0.000364,  12.488
   258.0,0.000789,0.000712,0.001048,0.000378,  12.490
   258.2,0.000797,0.000709,0.001085,0.000378,  12.488
   258.4,0.000793,0.000709,0.001092,0.000364,  12.482
   258.6,0.000793,0.000710,0.001065,0.000378,  12.485
   258.8,0.000793,0.000716,0.001102,0.000378,  12.484
   259.0,0.000786,0.000713,0.001182,0.000364,  12.488
   259.2,0.000789,0.000713,0.001244,0.000378,  12.480
   259.4,0.000789,0.000713,0.001288,0.000378,  12.482
   259.6,0.000786,0.000710,0.001325,0.000364,  12.482
   259.8,0.000786,0.000710,0.001350,0.000364,  12.483
   260.0,0.000783,0.000702,0.001313,0.000364,  12.480
   260.2,0.000774,0.000696,0.001232,0.000364,  12.478
   260.4,0.000767,0.000699,0.001105,0.000351,  12.474
   260.6,0.000766,0.000692,0.001095,0.000351,  12.476
   260.8,0.000765,0.000685,0.001130,0.000313,  12.473
   261.0,0.000751,0.000684,0.001202,0.000337,  12.477
   261.2,0.000741,0.000678,0.001300,0.000337,  12.473
   261.4,0.000738,0.000670,0.001335,0.000337,  12.476
   261.6,0.000730,0.000663,0.001353,0.000311,  12.474
   261.8,0.000724,0.000662,0.001370,0.000311,  12.473
   262.0,0.000728,0.000656,0.001370,0.000324,  12.474
   262.2,0.000721,0.000654,0.001335,0.000311,  12.473
   262.4,0.000715,0.000652,0.001316,0.000311,  12.471
   262.6,0.000716,0.000641,0.001306,0.000311,  12.474
   262.8,0.000702,0.000648,0.001262,0.000297,  12.474
   263.0,0.000699,0.000643,0.001225,0.000297,  12.471
   263.2,0.000697,0.000644,0.001233,0.000297,  12.471
   263.4,0.000684,0.000639,0.001215,0.000284,  12.470
   263.6,0.000681,0.000639,0.001225,0.000284,  12.468
   263.8,0.000685,0.000634,0.001270,0.000284,  12.467
   264.0,0.000674,0.000632,0.001314,0.000270,  12.466
   264.2,0.000671,0.000627,0.001376,0.000270,  12.462
   264.4,0.000676,0.000620,0.001413,0.000270,  12.464
   264.6,0.000668,0.000617,0.001413,0.000270,  12.466
   264.8,0.000668,0.000615,0.001395,0.000270,  12.468
   265.0,0.000662,0.000616,0.001388,0.000270,  12.464
   265.2,0.000665,0.000610,0.001370,0.000270,  12.466
   265.4,0.000665,0.000610,0.001335,0.000257,  12.464
   265.6,0.000665,0.000612,0.001300,0.000257,  12.463
   265.8,0.000665,0.000607,0.001221,0.000257,  12.465
   266.0,0.000665,0.000612,0.001175,0.000244,  12.460
   266.2,0.000662,0.000612,0.000969,0.000244,  12.464
   266.4,0.000659,0.000609,0.000667,0.000244,  12.463
   266.6,0.000656,0.000612,0.000285,0.000257,  12.463
   266.8,0.000657,0.000606,0.000258,0.000219,  12.459
   267.0,0.000657,0.000603,0.000312,0.000219,  12.458
   267.2,0.000657,0.000611,0.000499,0.000219,  12.458
   267.4,0.000653,0.000606,0.000590,0.000182,  12.459
   267.6,0.000656,0.000598,0.000688,0.000219,  12.461
   267.8,0.000648,0.000601,0.000804,0.000219,  12.460
   268.0,0.000648,0.000600,0.000379,0.000182,  12.457
   268.2,0.000648,0.000598,-0.000296,0.000219,  12.457
   268.4,0.000638,0.000602,-0.001244,0.000219,  12.456
   268.6,0.000638,0.000607,-0.001242,0.000182,  12.455
   268.8,0.000642,0.000607,-0.000880,0.000219,  12.453
   269.0,0.000639,0.000606,-0.000223,0.000219,  12.450
   269.2,0.000639,0.000607,0.000018,0.000219,  12.452
   269.4,0.000642,0.000604,0.000230,0.000219,  12.452
   269.6,0.000642,0.000596,0.000363,0.000219,  12.446
   269.8,0.000642,0.000601,0.000504,0.000182,  12.449
   270.0,0.000642,0.000604,0.000568,0.000219,  12.452
   270.2,0.000653,0.000605,0.000620,0.000219,  12.451
   270.4,0.000653,0.000602,0.000613,0.000219,  12.447
   270.6,0.000653,0.000602,0.000649,0.000219,  12.445
   270.8,0.000663,0.000601,0.000702,0.000257,  12.448
   271.0,0.000663,0.000603,0.000711,0.000257,  12.445
   271.2,0.000653,0.000602,0.000765,0.000257,  12.444
   271.4,0.000642,0.000593,0.000819,0.000257,  12.444
   271.6,0.000642,0.000601,0.000881,0.000257,  12.447
   271.8,0.000642,0.000600,0.000864,0.000257,  12.445
   272.0,0.000635,0.000602,0.000792,0.000257,  12.441
   272.2,0.000635,0.000605,0.000676,0.000257,  12.438
   272.4,0.000645,0.000601,0.000659,0.000257,  12.441
   272.6,0.000648,0.000603,0.000643,0.000257,  12.439
   272.8,0.000648,0.000603,0.000653,0.000257,  12.438
   273.0,0.000645,0.000605,0.000635,0.000257,  12.441
   273.2,0.000642,0.000600,0.000618,0.000257,  12.437
   273.4,0.000642,0.000595,0.000608,0.000257,  12.436
   273.6,0.000639,0.000596,0.000537,0.000257,  12.437
   273.8,0.000639,0.000591,0.000448,0.000257,  12.438
   274.0,0.000636,0.000589,0.000357,0.000257,  12.432
   274.2,0.000633,0.000599,0.000367,0.000257,  12.435
   274.4,0.000643,0.000593,0.000430,0.000257,  12.431
   274.6,0.000647,0.000593,0.000521,0.000257,  12.432
   274.8,0.000647,0.000595,0.000575,0.000257,  12.429
   275.0,0.000657,0.000592,0.000620,0.000257,  12.427
   275.2,0.000657,0.000594,0.000637,0.000295,  12.425
   275.4,0.000647,0.000594,0.000610,0.000295,  12.430
   275.6,0.000647,0.000591,0.000521,0.000295,  12.429
   275.8,0.000650,0.000597,0.000405,0.000332,  12.426
   276.0,0.000639,0.000594,0.000388,0.000332,  12.423
   276.2,0.000643,0.000591,0.000388,0.000295,  12.421
   276.4,0.000647,0.000597,0.000415,0.000308,  12.419
   276.6,0.000643,0.000597,-0.000055,0.000321,  12.417
   276.8,0.000647,0.000598,-0.000780,0.000335,  12.421
   277.0,0.000656,0.000603,-0.001743,0.000362,  12.415
   277.2,0.000665,0.000613,-0.001778,0.000362,  12.416
   277.4,0.000678,0.000614,-0.001494,0.000362,  12.415
   277.6,0.000690,0.000628,-0.000882,0.000362,  12.414
   277.8,0.000699,0.000641,-0.000651,0.000388,  12.412
   278.0,0.000709,0.000643,-0.000457,0.000375,  12.413
   278.2,0.000718,0.000650,-0.000314,0.000375,  12.415
   278.4,0.000721,0.000655,-0.000225,0.000375,  12.414
   278.6,0.000721,0.000654,-0.000198,0.000337,  12.412
   278.8,0.000724,0.000659,-0.000218,0.000337,  12.413
   279.0,0.000727,0.000664,-0.000289,0.000313,  12.408
   279.2,0.000730,0.000663,-0.000225,0.000313,  12.405
   279.4,0.000736,0.000666,-0.000127,0.000351,  12.407
   279.6,0.000736,0.000668,0.000006,0.000364,  12.404
   279.8,0.000736,0.000665,-0.000216,0.000364,  12.404
   280.0,0.000740,0.000673,-0.000623,0.000364,  12.404
   280.2,0.000743,0.000671,-0.001198,0.000378,  12.401
   280.4,0.000740,0.000673,-0.001198,0.000378,  12.402
   280.6,0.000740,0.000672,-0.000987,0.000364,  12.402
   280.8,0.000746,0.000675,-0.000571,0.000378,  12.400
   281.0,0.000746,0.000674,-0.000438,0.000378,  12.399
   281.2,0.000749,0.000676,-0.000349,0.000364,  12.397
   281.4,0.000752,0.000676,-0.000287,0.000378,  12.400
   281.6,0.000752,0.000679,-0.000198,0.000378,  12.399
   281.8,0.000755,0.000676,-0.000137,0.000364,  12.400
   282.0,0.000755,0.000679,-0.000094,0.000378,  12.397
   282.2,0.000752,0.000680,-0.000077,0.000378,  12.398
   282.4,0.000755,0.000677,-0.000077,0.000364,  12.396
   282.6,0.000755,0.000683,-0.000113,0.000378,  12.393
   282.8,0.000752,0.000686,-0.000086,0.000378,  12.392
   283.0,0.000755,0.000683,-0.000042,0.000378,  12.393
   283.2,0.000755,0.000683,0.000045,0.000378,  12.392
   283.4,0.000755,0.000686,0.000117,0.000378,  12.390
   283.6,0.000758,0.000683,0.000188,0.000378,  12.392
   283.8,0.000755,0.000685,0.000250,0.000378,  12.391
   284.0,0.000755,0.000687,0.000304,0.000378,  12.394
   284.2,0.000755,0.000682,0.000341,0.000378,  12.389
   284.4,0.000755,0.000687,0.000393,0.000378,  12.392
   284.6,0.000752,0.000687,0.000383,0.000378,  12.388
   284.8,0.000756,0.000682,0.000312,0.000378,  12.388
   285.0,0.000756,0.000679,0.000213,0.000378,  12.386
   285.2,0.000756,0.000677,0.000231,0.000378,  12.388
   285.4,0.000753,0.000672,0.000267,0.000378,  12.389
   285.6,0.000738,0.000675,0.000339,0.000378,  12.385
   285.8,0.000741,0.000675,0.000393,0.000378,  12.387
   286.0,0.000738,0.000668,0.000464,0.000364,  12.384
   286.2,0.000735,0.000674,0.000544,0.000351,  12.383
   286.4,0.000732,0.000670,0.000579,0.000364,  12.382
   286.6,0.000733,0.000665,0.000569,0.000351,  12.384
   286.8,0.000735,0.000660,0.000542,0.000351,  12.382
   287.0,0.000731,0.000661,0.000488,0.000351,  12.386
   287.2,0.000718,0.000653,0.000442,0.000313,  12.383
   287.4,0.000715,0.000648,0.000353,0.000337,  12.378
   287.6,0.000709,0.000646,0.000253,0.000351,  12.380
   287.8,0.000699,0.000638,0.000226,0.000337,  12.379
   288.0,0.000693,0.000639,0.000199,0.000324,  12.383
   288.2,0.000684,0.000632,0.000206,0.000324,  12.382
   288.4,0.000678,0.000626,0.000056,0.000286,  12.381
   288.6,0.000674,0.000621,-0.000174,0.000273,  12.379
   288.8,0.000668,0.000613,-0.000457,0.000273,  12.382
   289.0,0.000665,0.000609,-0.000440,0.000273,  12.379
   289.2,0.000662,0.000606,-0.000342,0.000297,  12.381
   289.4,0.000656,0.000605,-0.000112,0.000297,  12.378
   289.6,0.000650,0.000608,-0.000006,0.000284,  12.376
   289.8,0.000647,0.000608,0.000048,0.000270,  12.376
   290.0,0.000643,0.000603,0.000100,0.000270,  12.377
   290.2,0.000643,0.000603,0.000164,0.000270,  12.377
   290.4,0.000643,0.000597,0.000245,0.000270,  12.378
   290.6,0.000640,0.000600,0.000326,0.000270,  12.375
   290.8,0.000634,0.000596,0.000150,0.000270,  12.372
   291.0,0.000634,0.000590,-0.000126,0.000270,  12.374
   291.2,0.000634,0.000590,-0.000500,0.000270,  12.375
   291.4,0.000631,0.000582,-0.000473,0.000270,  12.375
   291.6,0.000628,0.000574,-0.000340,0.000270,  12.373
   291.8,0.000625,0.000577,-0.000064,0.000270,  12.374
   292.0,0.000622,0.000573,0.000051,0.000270,  12.374
   292.2,0.000622,0.000567,0.000166,0.000270,  12.374
   292.4,0.000625,0.000575,0.000227,0.000270,  12.371
   292.6,0.000617,0.000577,0.000301,0.000270,  12.370
   292.8,0.000625,0.000574,0.000382,0.000270,  12.365
   293.0,0.000628,0.000574,0.000437,0.000270,  12.366
   293.2,0.000625,0.000572,0.000412,0.000270,  12.367
   293.4,0.000632,0.000566,0.000341,0.000270,  12.364
   293.6,0.000622,0.000567,0.000233,0.000270,  12.366
   293.8,0.000619,0.000566,0.000180,0.000270,  12.366
   294.0,0.000623,0.000558,0.000128,0.000270,  12.367
   294.2,0.000616,0.000566,0.000118,0.000270,  12.362
   294.4,0.000609,0.000567,0.000145,0.000270,  12.363
   294.6,0.000617,0.000562,0.000174,0.000270,  12.367
   294.8,0.000612,0.000559,0.000255,0.000257,  12.367
   295.0,0.000612,0.000559,0.000265,0.000257,  12.368
   295.2,0.000620,0.000558,0.000274,0.000219,  12.364
   295.4,0.000612,0.000553,0.000257,0.000257,  12.366
   295.6,0.000617,0.000555,0.000230,0.000257,  12.360
   295.8,0.000618,0.000552,0.000151,0.000257,  12.366
   296.0,0.000611,0.000557,0.000035,0.000257,  12.361
   296.2,0.000611,0.000557,-0.000100,0.000257,  12.362
   296.4,0.000611,0.000557,-0.000127,0.000257,  12.364
   296.6,0.000603,0.000557,-0.000144,0.000257,  12.361
   296.8,0.000603,0.000555,-0.000135,0.000257,  12.359
   297.0,0.000608,0.000552,-0.000152,0.000257,  12.360
   297.2,0.000600,0.000550,-0.000187,0.000257,  12.359
   297.4,0.000603,0.000550,-0.000222,0.000270,  12.361
   297.6,0.000608,0.000550,-0.000114,0.000270,  12.361
   297.8,0.000600,0.000547,0.000056,0.000270,  12.360
   298.0,0.000603,0.000555,0.000297,0.000284,  12.354
   298.2,0.000603,0.000555,0.000289,0.000284,  12.357
   298.4,0.000603,0.000550,0.000173,0.000270,  12.355
   298.6,0.000603,0.000550,-0.000041,0.000257,  12.355
   298.8,0.000603,0.000555,-0.000111,0.000257,  12.352
   299.0,0.000603,0.000545,-0.000138,0.000257,  12.353
   299.2,0.000606,0.000548,-0.000147,0.000244,  12.353
   299.4,0.000606,0.000552,-0.000190,0.000244,  12.348
   299.6,0.000606,0.000544,-0.000207,0.000257,  12.351
   299.8,0.000606,0.000550,-0.000225,0.000257,  12.352
   300.0,0.000600,0.000553,-0.000232,0.000257,  12.349
   300.2,0.000600,0.000550,-0.000259,0.000257,  12.351
   300.4,0.000603,0.000554,-0.000277,0.000257,  12.351
   300.6,0.000600,0.000559,-0.000285,0.000257,  12.346
   300.8,0.000600,0.000556,-0.000277,0.000257,  12.347
   301.0,0.000600,0.000556,-0.000294,0.000257,  12.349
   301.2,0.000596,0.000564,-0.000293,0.000257,  12.347
   301.4,0.000603,0.000564,-0.000275,0.000257,  12.345
   301.6,0.000603,0.000559,-0.000266,0.000257,  12.346
   301.8,0.000603,0.000565,-0.000167,0.000257,  12.342
   302.0,0.000603,0.000562,-0.000051,0.000257,  12.344
   302.2,0.000603,0.000559,0.000117,0.000257,  12.343
   302.4,0.000603,0.000558,0.000063,0.000257,  12.344
   302.6,0.000600,0.000553,-0.000098,0.000257,  12.345
   302.8,0.000603,0.000558,-0.000373,0.000270,  12.343
   303.0,0.000609,0.000558,-0.000462,0.000257,  12.340
   303.2,0.000612,0.000560,-0.000559,0.000284,  12.339
   303.4,0.000622,0.000567,-0.000628,0.000284,  12.342
   303.6,0.000631,0.000577,-0.000646,0.000297,  12.342
   303.8,0.000643,0.000579,-0.000644,0.000273,  12.344
   304.0,0.000656,0.000591,-0.000607,0.000324,  12.339
   304.2,0.000662,0.000603,-0.000536,0.000337,  12.340
   304.4,0.000668,0.000608,-0.000598,0.000337,  12.337
   304.6,0.000678,0.000602,-0.000669,0.000337,  12.342
   304.8,0.000684,0.000608,-0.000767,0.000351,  12.339
   305.0,0.000687,0.000612,-0.000775,0.000351,  12.340
   305.2,0.000693,0.000612,-0.000731,0.000351,  12.339
   305.4,0.000696,0.000619,-0.000694,0.000364,  12.335
   305.6,0.000699,0.000620,-0.000675,0.000364,  12.339
   305.8,0.000702,0.000620,-0.000658,0.000364,  12.336
   306.0,0.000699,0.000625,-0.000648,0.000378,  12.337
   306.2,0.000707,0.000627,-0.000905,0.000378,  12.337
   306.4,0.000702,0.000621,-0.001286,0.000378,  12.335
   306.6,0.000702,0.000627,-0.001826,0.000378,  12.336
   306.8,0.000713,0.000633,-0.001826,0.000378,  12.337
   307.0,0.000705,0.000633,-0.001632,0.000378,  12.336
   307.2,0.000705,0.000628,-0.001268,0.000378,  12.337
   307.4,0.000710,0.000629,-0.001339,0.000378,  12.334
   307.6,0.000705,0.000627,-0.001553,0.000378,  12.335
   307.8,0.000702,0.000627,-0.001906,0.000378,  12.328
   308.0,0.000707,0.000631,-0.001852,0.000378,  12.332
   308.2,0.000702,0.000633,-0.001668,0.000378,  12.330
   308.4,0.000702,0.000630,-0.001358,0.000378,  12.330
   308.6,0.000705,0.000632,-0.001226,0.000378,  12.330
   308.8,0.000705,0.000629,-0.001155,0.000378,  12.332
   309.0,0.000705,0.000632,-0.001103,0.000378,  12.333
   309.2,0.000705,0.000632,-0.001068,0.000378,  12.330
   309.4,0.000705,0.000631,-0.001087,0.000378,  12.332
   309.6,0.000705,0.000631,-0.001150,0.000378,  12.332
   309.8,0.000702,0.000625,-0.001115,0.000378,  12.329
   310.0,0.000699,0.000620,-0.001062,0.000378,  12.332
   310.2,0.000702,0.000623,-0.001000,0.000378,  12.329
   310.4,0.000689,0.000618,-0.000983,0.000378,  12.330
   310.6,0.000693,0.000613,-0.000973,0.000378,  12.328
   310.8,0.000693,0.000616,-0.000983,0.000378,  12.331
   311.0,0.000693,0.000616,-0.000956,0.000378,  12.330
   311.2,0.000696,0.000613,-0.000929,0.000378,  12.330
   311.4,0.000699,0.000618,-0.000894,0.000378,  12.329
   311.6,0.000696,0.000621,-0.000858,0.000378,  12.330
   311.8,0.000693,0.000618,-0.000796,0.000378,  12.331
   312.0,0.000693,0.000616,-0.000734,0.000364,  12.331
   312.2,0.000690,0.000619,-0.000707,0.000378,  12.327
   312.4,0.000684,0.000613,-0.000690,0.000364,  12.327
   312.6,0.000681,0.000611,-0.000665,0.000364,  12.333
   312.8,0.000682,0.000614,-0.000665,0.000364,  12.329
   313.0,0.000688,0.000609,-0.000647,0.000351,  12.330
   313.2,0.000677,0.000608,-0.000665,0.000388,  12.330
   313.4,0.000674,0.000612,-0.000674,0.000439,  12.330
   313.6,0.000671,0.000604,-0.000622,0.000426,  12.332
   313.8,0.000660,0.000596,-0.000578,0.000375,  12.331
   314.0,0.000661,0.000590,-0.000516,0.000375,  12.332
   314.2,0.000652,0.000580,-0.000526,0.000375,  12.329
   314.4,0.000642,0.000577,-0.000614,0.000348,  12.334
   314.6,0.000635,0.000573,-0.000714,0.000348,  12.331
   314.8,0.000625,0.000563,-0.000697,0.000348,  12.329
   315.0,0.000614,0.000561,-0.000643,0.000335,  12.330
   315.2,0.000611,0.000562,-0.000579,0.000335,  12.331
   315.4,0.000605,0.000554,-0.000560,0.000335,  12.333
   315.6,0.000594,0.000554,-0.000526,0.000321,  12.334
   315.8,0.000591,0.000548,-0.000526,0.000321,  12.334
   316.0,0.000593,0.000554,-0.000499,0.000335,  12.334
   316.2,0.000593,0.000548,-0.000480,0.000321,  12.332
   316.4,0.000596,0.000549,-0.000445,0.000321,  12.329
   316.6,0.000593,0.000546,-0.000472,0.000335,  12.331
   316.8,0.000593,0.000541,-0.000518,0.000321,  12.330
   317.0,0.000593,0.000543,-0.000608,0.000284,  12.329
   317.2,0.000590,0.000541,-0.000581,0.000284,  12.333
   317.4,0.000586,0.000533,-0.000510,0.000270,  12.332
   317.6,0.000583,0.000534,-0.000419,0.000233,  12.332
   317.8,0.000577,0.000538,-0.000437,0.000233,  12.335
   318.0,0.000585,0.000532,-0.000508,0.000270,  12.334
   318.2,0.000582,0.000527,-0.000633,0.000270,  12.334
   318.4,0.000582,0.000533,-0.000641,0.000270,  12.332
   318.6,0.000582,0.000527,-0.000614,0.000270,  12.330
   318.8,0.000578,0.000527,-0.000560,0.000270,  12.329
   319.0,0.000574,0.000530,-0.000560,0.000270,  12.330
   319.2,0.000578,0.000525,-0.000578,0.000270,  12.333
   319.4,0.000578,0.000525,-0.000614,0.000270,  12.330
   319.6,0.000582,0.000523,-0.000632,0.000270,  12.333
   319.8,0.000578,0.000517,-0.000659,0.000270,  12.334
   320.0,0.000578,0.000517,-0.000676,0.000270,  12.329
   320.2,0.000578,0.000517,-0.000674,0.000270,  12.332
   320.4,0.000572,0.000512,-0.000657,0.000270,  12.331
   320.6,0.000565,0.000517,-0.000647,0.000270,  12.333
   320.8,0.000565,0.000520,-0.000593,0.000270,  12.327
   321.0,0.000562,0.000515,-0.000530,0.000270,  12.332
   321.2,0.000559,0.000523,-0.000467,0.000257,  12.330
   321.4,0.000559,0.000520,-0.000582,0.000257,  12.330
   321.6,0.000566,0.000515,-0.000804,0.000219,  12.328
   321.8,0.000570,0.000520,-0.001148,0.000257,  12.329
   322.0,0.000567,0.000518,-0.001220,0.000257,  12.328
   322.2,0.000560,0.000512,-0.001220,0.000257,  12.328
   322.4,0.000563,0.000515,-0.001148,0.000257,  12.329
   322.6,0.000557,0.000517,-0.001006,0.000257,  12.328
   322.8,0.000554,0.000512,-0.000952,0.000257,  12.327
   323.0,0.000549,0.000509,-0.000925,0.000257,  12.327
   323.2,0.000549,0.000512,-0.000881,0.000257,  12.327
   323.4,0.000549,0.000507,-0.000889,0.000257,  12.323
   323.6,0.000545,0.000508,-0.000924,0.000257,  12.327
   323.8,0.000545,0.000518,-0.000995,0.000257,  12.318
   324.0,0.000549,0.000518,-0.000978,0.000257,  12.326
   324.2,0.000552,0.000518,-0.000968,0.000257,  12.327
   324.4,0.000552,0.000513,-0.000941,0.000257,  12.328
   324.6,0.000549,0.000515,-0.000897,0.000257,  12.325
   324.8,0.000552,0.000518,-0.000843,0.000257,  12.328
   325.0,0.000552,0.000512,-0.000807,0.000257,  12.324
   325.2,0.000549,0.000512,-0.000841,0.000257,  12.320
   325.4,0.000552,0.000509,-0.000895,0.000257,  12.324
   325.6,0.000555,0.000511,-0.001011,0.000257,  12.323
   325.8,0.000559,0.000508,-0.001072,0.000257,  12.321
   326.0,0.000559,0.000505,-0.001117,0.000257,  12.322
   326.2,0.000559,0.000511,-0.001170,0.000257,  12.319
   326.4,0.000559,0.000514,-0.001515,0.000219,  12.321
   326.6,0.000559,0.000514,-0.002018,0.000219,  12.319
   326.8,0.000559,0.000511,-0.002687,0.000219,  12.321
   327.0,0.000559,0.000518,-0.002695,0.000182,  12.322
   327.2,0.000559,0.000514,-0.002431,0.000219,  12.321
   327.4,0.000559,0.000514,-0.001928,0.000219,  12.323
   327.6,0.000559,0.000519,-0.001928,0.000182,  12.318
   327.8,0.000562,0.000515,-0.002068,0.000219,  12.319
   328.0,0.000557,0.000515,-0.002333,0.000219,  12.317
   328.2,0.000571,0.000519,-0.002509,0.000219,  12.321
   328.4,0.000571,0.000515,-0.002730,0.000244,  12.315
   328.6,0.000564,0.000512,-0.002994,0.000257,  12.316
   328.8,0.000574,0.000511,-0.002933,0.000257,  12.321
   329.0,0.000571,0.000516,-0.002775,0.000257,  12.317
   329.2,0.000574,0.000516,-0.002486,0.000270,  12.320
   329.4,0.000577,0.000519,-0.002281,0.000284,  12.316
   329.6,0.000580,0.000529,-0.002059,0.000284,  12.317
   329.8,0.000594,0.000534,-0.001810,0.000297,  12.318
   330.0,0.000597,0.000531,-0.001658,0.000297,  12.320
   330.2,0.000603,0.000538,-0.001541,0.000311,  12.317
   330.4,0.000620,0.000547,-0.001453,0.000311,  12.315
   330.6,0.000626,0.000558,-0.001418,0.000324,  12.315
   330.8,0.000625,0.000559,-0.001462,0.000286,  12.319
   331.0,0.000624,0.000566,-0.001577,0.000337,  12.318
   331.2,0.000633,0.000577,-0.001577,0.000351,  12.315
   331.4,0.000639,0.000576,-0.001551,0.000351,  12.314
   331.6,0.000645,0.000581,-0.001514,0.000351,  12.315
   331.8,0.000652,0.000586,-0.001443,0.000364,  12.320
   332.0,0.000662,0.000588,-0.001443,0.000364,  12.317
   332.2,0.000676,0.000593,-0.001453,0.000364,  12.316
   332.4,0.000679,0.000601,-0.001479,0.000378,  12.314
   332.6,0.000668,0.000596,-0.001418,0.000378,  12.318
   332.8,0.000671,0.000601,-0.001329,0.000364,  12.317
   333.0,0.000671,0.000601,-0.001249,0.000378,  12.317
   333.2,0.000668,0.000601,-0.001258,0.000378,  12.318
   333.4,0.000671,0.000598,-0.001312,0.000364,  12.312
   333.6,0.000671,0.000601,-0.001427,0.000378,  12.319
   333.8,0.000671,0.000598,-0.001462,0.000378,  12.321
   334.0,0.000667,0.000593,-0.001462,0.000378,  12.315
   334.2,0.000664,0.000596,-0.001427,0.000378,  12.317
   334.4,0.000664,0.000599,-0.001401,0.000378,  12.317
   334.6,0.000667,0.000596,-0.001366,0.000378,  12.319
   334.8,0.000664,0.000604,-0.001322,0.000415,  12.318
   335.0,0.000671,0.000606,-0.001260,0.000415,  12.317
   335.2,0.000682,0.000603,-0.001243,0.000402,  12.317
   335.4,0.000679,0.000609,-0.001216,0.000453,  12.319
   335.6,0.000676,0.000609,-0.001243,0.000453,  12.323
   335.8,0.000671,0.000604,-0.001306,0.000402,  12.317
   336.0,0.000671,0.000604,-0.001396,0.000378,  12.315
   336.2,0.000679,0.000609,-0.001404,0.000378,  12.323
   336.4,0.000679,0.000604,-0.001369,0.000364,  12.322
   336.6,0.000679,0.000609,-0.001290,0.000340,  12.323
   336.8,0.000682,0.000611,-0.001273,0.000340,  12.319
   337.0,0.000679,0.000603,-0.001290,0.000364,  12.322
   337.2,0.000682,0.000612,-0.001334,0.000378,  12.327
   337.4,0.000682,0.000610,-0.001300,0.000378,  12.324
   337.6,0.000671,0.000605,-0.001255,0.000364,  12.324
   337.8,0.000674,0.000607,-0.001211,0.000378,  12.322
   338.0,0.000671,0.000606,-0.001821,0.000378,  12.325
   338.2,0.000671,0.000609,-0.002763,0.000364,  12.327
   338.4,0.000674,0.000604,-0.004020,0.000378,  12.325
   338.6,0.000671,0.000605,-0.004213,0.000378,  12.329
   338.8,0.000668,0.000599,-0.004030,0.000364,  12.327
   339.0,0.000668,0.000604,-0.003495,0.000364,  12.328
   339.2,0.000665,0.000601,-0.003143,0.000364,  12.328
   339.4,0.000659,0.000592,-0.002668,0.000364,  12.330
   339.6,0.000656,0.000586,-0.002122,0.000351,  12.326
   339.8,0.000650,0.000585,-0.001848,0.000351,  12.330
   340.0,0.000643,0.000580,-0.001663,0.000313,  12.328
   340.2,0.000637,0.000577,-0.001567,0.000337,  12.329
   340.4,0.000628,0.000573,-0.001434,0.000351,  12.332
   340.6,0.000622,0.000565,-0.001294,0.000337,  12.332
   340.8,0.000619,0.000566,-0.001197,0.000324,  12.331
   341.0,0.000612,0.000556,-0.001136,0.000324,  12.333
   341.2,0.000609,0.000548,-0.001064,0.000324,  12.333
   341.4,0.000606,0.000551,-0.001012,0.000311,  12.333
   341.6,0.000600,0.000546,-0.000995,0.000311,  12.336
   341.8,0.000594,0.000539,-0.000906,0.000324,  12.334
   342.0,0.000591,0.000545,-0.000808,0.000311,  12.334
   342.2,0.000585,0.000541,-0.000693,0.000311,  12.333
   342.4,0.000582,0.000538,-0.000640,0.000311,  12.337
   342.6,0.000574,0.000533,-0.000623,0.000297,  12.336
   342.8,0.000568,0.000533,-0.000650,0.000297,  12.334
   343.0,0.000562,0.000524,-0.000667,0.000284,  12.339
   343.2,0.000562,0.000516,-0.000704,0.000270,  12.339
   343.4,0.000562,0.000519,-0.000785,0.000270,  12.335
   343.6,0.000569,0.000520,-0.000783,0.000270,  12.330
   343.8,0.000573,0.000515,-0.000729,0.000270,  12.334
   344.0,0.000573,0.000517,-0.000648,0.000270,  12.338
   344.2,0.000563,0.000515,-0.000612,0.000270,  12.335
   344.4,0.000560,0.000509,-0.000558,0.000270,  12.333
   344.6,0.000557,0.000509,-0.000514,0.000270,  12.336
   344.8,0.000551,0.000512,-0.000726,0.000270,  12.338
   345.0,0.000551,0.000502,-0.001045,0.000270,  12.333
   345.2,0.000551,0.000505,-0.001497,0.000257,  12.342
   345.4,0.000547,0.000503,-0.001603,0.000257,  12.335
   345.6,0.000537,0.000496,-0.001568,0.000257,  12.336
   345.8,0.000534,0.000499,-0.001428,0.000244,  12.338
   346.0,0.000531,0.000496,-0.001366,0.000244,  12.335
   346.2,0.000528,0.000488,-0.001295,0.000257,  12.334
   346.4,0.000523,0.000495,-0.001232,0.000257,  12.337
   346.6,0.000528,0.000495,-0.001222,0.000257,  12.338
   346.8,0.000531,0.000492,-0.001222,0.000257,  12.336
   347.0,0.000526,0.000491,-0.001240,0.000257,  12.335
   347.2,0.000534,0.000496,-0.001265,0.000257,  12.337
   347.4,0.000537,0.000495,-0.001274,0.000257,  12.337
   347.6,0.000540,0.000497,-0.001311,0.000257,  12.340
   347.8,0.000540,0.000497,-0.001319,0.000257,  12.339
   348.0,0.000534,0.000500,-0.001311,0.000257,  12.337
   348.2,0.000531,0.000497,-0.001320,0.000257,  12.339
   348.4,0.000531,0.000495,-0.001319,0.000257,  12.332
   348.6,0.000528,0.000495,-0.001292,0.000270,  12.341
   348.8,0.000528,0.000498,-0.001273,0.000270,  12.344
   349.0,0.000528,0.000501,-0.001254,0.000270,  12.342
   349.2,0.000531,0.000496,-0.001200,0.000233,  12.338
   349.4,0.000531,0.000498,-0.001190,0.000270,  12.334
   349.6,0.000531,0.000498,-0.001129,0.000257,  12.337
   349.8,0.000528,0.000490,-0.001156,0.000257,  12.340
   350.0,0.000531,0.000493,-0.001235,0.000257,  12.338
   350.2,0.000531,0.000491,-0.001333,0.000244,  12.339
   350.4,0.000528,0.000486,-0.001341,0.000244,  12.338
   350.6,0.000531,0.000489,-0.001322,0.000257,  12.340
   350.8,0.000531,0.000489,-0.001260,0.000257,  12.341
   351.0,0.000528,0.000489,-0.001206,0.000257,  12.341
   351.2,0.000531,0.000486,-0.001118,0.000257,  12.342
   351.4,0.000531,0.000491,-0.001046,0.000257,  12.345
   351.6,0.000531,0.000488,-0.001708,0.000257,  12.340
   351.8,0.000534,0.000490,-0.002748,0.000257,  12.343
   352.0,0.000534,0.000492,-0.004153,0.000257,  12.340
   352.2,0.000534,0.000492,-0.004207,0.000257,  12.341
   352.4,0.000534,0.000489,-0.003794,0.000257,  12.340
   352.6,0.000534,0.000492,-0.002924,0.000257,  12.342
   352.8,0.000531,0.000494,-0.002767,0.000257,  12.340
   353.0,0.000528,0.000491,-0.002785,0.000257,  12.341
   353.2,0.000528,0.000486,-0.002959,0.000295,  12.340
   353.4,0.000531,0.000489,-0.002827,0.000295,  12.341
   353.6,0.000534,0.000489,-0.002651,0.000295,  12.338
   353.8,0.000526,0.000489,-0.002405,0.000308,  12.337
   354.0,0.000526,0.000487,-0.002237,0.000308,  12.339
   354.2,0.000537,0.000492,-0.002077,0.000270,  12.336
   354.4,0.000537,0.000492,-0.001928,0.000246,  12.341
   354.6,0.000541,0.000496,-0.001830,0.000246,  12.334
   354.8,0.000541,0.000495,-0.001751,0.000270,  12.338
   355.0,0.000544,0.000496,-0.001724,0.000270,  12.339
   355.2,0.000540,0.000498,-0.001724,0.000270,  12.339
   355.4,0.000543,0.000498,-0.001768,0.000270,  12.335
   355.6,0.000542,0.000498,-0.001831,0.000270,  12.338
   355.8,0.000555,0.000502,-0.001805,0.000284,  12.338
   356.0,0.000559,0.000509,-0.001759,0.000297,  12.336
   356.2,0.000557,0.000519,-0.001696,0.000311,  12.337
   356.4,0.000574,0.000528,-0.001721,0.000311,  12.339
   356.6,0.000583,0.000534,-0.001765,0.000324,  12.341
   356.8,0.000596,0.000538,-0.001845,0.000337,  12.341
   357.0,0.000602,0.000551,-0.002189,0.000337,  12.343
   357.2,0.000608,0.000558,-0.002648,0.000351,  12.339
   357.4,0.000621,0.000557,-0.003281,0.000351,  12.343
   357.6,0.000624,0.000565,-0.003360,0.000351,  12.341
   357.8,0.000630,0.000570,-0.003203,0.000364,  12.339
   358.0,0.000636,0.000569,-0.002877,0.000351,  12.337
   358.2,0.000636,0.000574,-0.002877,0.000364,  12.342
   358.4,0.000636,0.000579,-0.002939,0.000327,  12.337
   358.6,0.000642,0.000582,-0.003036,0.000364,  12.339
   358.8,0.000635,0.000589,-0.003229,0.000378,  12.337
   359.0,0.000638,0.000588,-0.003061,0.000378,  12.341
   359.2,0.000641,0.000590,-0.002788,0.000364,  12.344
   359.4,0.000637,0.000589,-0.002416,0.000378,  12.342
   359.6,0.000641,0.000586,-0.002266,0.000378,  12.339
   359.8,0.000641,0.000583,-0.002195,0.000364,  12.341
   360.0,0.000637,0.000587,-0.002180,0.000378,  12.342
   360.2,0.000644,0.000585,-0.002074,0.000378,  12.340
   360.4,0.000644,0.000588,-0.001976,0.000364,  12.341
   360.6,0.000637,0.000583,-0.001836,0.000415,  12.346
   360.8,0.000644,0.000589,-0.001757,0.000415,  12.345
   361.0,0.000644,0.000584,-0.001730,0.000402,  12.345
   361.2,0.000640,0.000592,-0.001722,0.000415,  12.345
   361.4,0.000647,0.000592,-0.001661,0.000415,  12.343
   361.6,0.000650,0.000586,-0.001590,0.000364,  12.345
   361.8,0.000643,0.000590,-0.001519,0.000340,  12.348
   362.0,0.000650,0.000592,-0.001492,0.000340,  12.347
   362.2,0.000650,0.000589,-0.001467,0.000378,  12.345
   362.4,0.000650,0.000589,-0.001476,0.000378,  12.347
   362.6,0.000655,0.000592,-0.001486,0.000378,  12.346
   362.8,0.000655,0.000595,-0.001549,0.000378,  12.346
   363.0,0.000650,0.000596,-0.001629,0.000378,  12.347
   363.2,0.000647,0.000597,-0.001622,0.000378,  12.349
   363.4,0.000647,0.000594,-0.001639,0.000378,  12.348
   363.6,0.000643,0.000595,-0.001622,0.000378,  12.350
   363.8,0.000640,0.000593,-0.001603,0.000378,  12.344
   364.0,0.000647,0.000589,-0.001568,0.000378,  12.347
   364.2,0.000643,0.000589,-0.001533,0.000378,  12.348
   364.4,0.000647,0.000592,-0.001497,0.000378,  12.346
   364.6,0.000644,0.000586,-0.001435,0.000378,  12.348
   364.8,0.000644,0.000589,-0.001391,0.000378,  12.351
   365.0,0.000637,0.000587,-0.001921,0.000340,  12.353
   365.2,0.000641,0.000584,-0.002759,0.000327,  12.350
   365.4,0.000638,0.000586,-0.003876,0.000340,  12.352
   365.6,0.000630,0.000586,-0.003849,0.000327,  12.354
   365.8,0.000632,0.000583,-0.003410,0.000351,  12.356
   366.0,0.000629,0.000576,-0.002522,0.000351,  12.355
   366.2,0.000615,0.000574,-0.002196,0.000351,  12.355
   366.4,0.000616,0.000564,-0.001975,0.000351,  12.351
   366.6,0.000613,0.000559,-0.001808,0.000337,  12.351
   366.8,0.000599,0.000558,-0.001641,0.000337,  12.353
   367.0,0.000598,0.000547,-0.001491,0.000286,  12.354
   367.2,0.000591,0.000546,-0.001402,0.000311,  12.351
   367.4,0.000578,0.000545,-0.001323,0.000311,  12.353
   367.6,0.000579,0.000534,-0.001279,0.000324,  12.351
   367.8,0.000576,0.000534,-0.001271,0.000311,  12.355
   368.0,0.000562,0.000534,-0.001290,0.000311,  12.351
   368.2,0.000567,0.000527,-0.001265,0.000311,  12.355
   368.4,0.000564,0.000527,-0.001265,0.000297,  12.357
   368.6,0.000550,0.000523,-0.001265,0.000297,  12.353
   368.8,0.000551,0.000520,-0.001142,0.000297,  12.355
   369.0,0.000548,0.000517,-0.001017,0.000284,  12.359
   369.2,0.000542,0.000509,-0.000855,0.000284,  12.356
   369.4,0.000546,0.000506,-0.000863,0.000297,  12.357
   369.6,0.000546,0.000501,-0.000927,0.000284,  12.354
   369.8,0.000543,0.000501,-0.001078,0.000321,  12.360
   370.0,0.000540,0.000498,-0.001078,0.000321,  12.357
   370.2,0.000540,0.000499,-0.001017,0.000308,  12.359
   370.4,0.000540,0.000502,-0.000936,0.000346,  12.355
   370.6,0.000540,0.000503,-0.000892,0.000346,  12.355
   370.8,0.000537,0.000498,-0.000873,0.000308,  12.355
   371.0,0.000534,0.000503,-0.000863,0.000295,  12.360
   371.2,0.000531,0.000496,-0.000915,0.000295,  12.358
   371.4,0.000528,0.000493,-0.000979,0.000295,  12.357
   371.6,0.000528,0.000491,-0.001078,0.000281,  12.357
   371.8,0.000531,0.000492,-0.001123,0.000281,  12.355
   372.0,0.000531,0.000497,-0.001140,0.000295,  12.359
   372.2,0.000520,0.000492,-0.001140,0.000257,  12.356
   372.4,0.000531,0.000485,-0.001113,0.000257,  12.357
   372.6,0.000528,0.000488,-0.001111,0.000257,  12.361
   372.8,0.000523,0.000489,-0.001075,0.000219,  12.360
   373.0,0.000531,0.000484,-0.001102,0.000219,  12.355
   373.2,0.000528,0.000476,-0.001173,0.000257,  12.362
   373.4,0.000531,0.000480,-0.001281,0.000257,  12.359
   373.6,0.000528,0.000484,-0.001271,0.000257,  12.358
   373.8,0.000521,0.000484,-0.001252,0.000257,  12.360
   374.0,0.000524,0.000486,-0.001181,0.000257,  12.363
   374.2,0.000524,0.000492,-0.001145,0.000257,  12.360
   374.4,0.000521,0.000494,-0.001135,0.000257,  12.356
   374.6,0.000524,0.000492,-0.001125,0.000257,  12.358
   374.8,0.000524,0.000489,-0.001125,0.000257,  12.357
   375.0,0.000521,0.000492,-0.001151,0.000257,  12.358
   375.2,0.000532,0.000488,-0.001160,0.000295,  12.354
   375.4,0.000532,0.000483,-0.001204,0.000332,  12.360
   375.6,0.000529,0.000483,-0.001203,0.000332,  12.357
   375.8,0.000532,0.000485,-0.001185,0.000295,  12.358
   376.0,0.000532,0.000482,-0.001141,0.000295,  12.358
   376.2,0.000521,0.000479,-0.001141,0.000295,  12.357
   376.4,0.000517,0.000479,-0.001166,0.000295,  12.359
   376.6,0.000520,0.000480,-0.001193,0.000295,  12.355
   376.8,0.000531,0.000480,-0.001238,0.000295,  12.356
   377.0,0.000531,0.000482,-0.001317,0.000295,  12.356
   377.2,0.000531,0.000482,-0.001388,0.000295,  12.360
   377.4,0.000531,0.000482,-0.001397,0.000295,  12.355
   377.6,0.000531,0.000484,-0.001415,0.000295,  12.357
   377.8,0.000523,0.000482,-0.001440,0.000257,  12.357
   378.0,0.000523,0.000485,-0.001580,0.000257,  12.359
   378.2,0.000523,0.000488,-0.001774,0.000257,  12.360
   378.4,0.000516,0.000482,-0.002039,0.000219,  12.357
   378.6,0.000520,0.000484,-0.002128,0.000219,  12.359
   378.8,0.000523,0.000479,-0.002164,0.000257,  12.358
   379.0,0.000523,0.000479,-0.002114,0.000295,  12.359
   379.2,0.000528,0.000482,-0.002043,0.000295,  12.358
   379.4,0.000531,0.000482,-0.001918,0.000295,  12.359
   379.6,0.000531,0.000484,-0.001757,0.000332,  12.361
   379.8,0.000528,0.000484,-0.001686,0.000332,  12.359
   380.0,0.000531,0.000488,-0.001694,0.000295,  12.356
   380.2,0.000531,0.000485,-0.001730,0.000257,  12.360
   380.4,0.000528,0.000486,-0.001730,0.000257,  12.359
   380.6,0.000531,0.000488,-0.001748,0.000257,  12.356
   380.8,0.000528,0.000493,-0.001767,0.000219,  12.359
   381.0,0.000521,0.000492,-0.001872,0.000219,  12.359
   381.2,0.000521,0.000495,-0.002057,0.000257,  12.356
   381.4,0.000514,0.000497,-0.002260,0.000270,  12.357
   381.6,0.000524,0.000492,-0.002270,0.000270,  12.358
   381.8,0.000524,0.000490,-0.002216,0.000270,  12.360
   382.0,0.000523,0.000493,-0.002110,0.000284,  12.354
   382.2,0.000537,0.000494,-0.002110,0.000297,  12.359
   382.4,0.000543,0.000493,-0.002128,0.000297,  12.358
   382.6,0.000552,0.000508,-0.002164,0.000311,  12.361
   382.8,0.000565,0.000520,-0.002260,0.000311,  12.359
   383.0,0.000571,0.000527,-0.002418,0.000324,  12.360
   383.2,0.000580,0.000536,-0.002585,0.000324,  12.359
   383.4,0.000590,0.000538,-0.002567,0.000351,  12.360
   383.6,0.000596,0.000543,-0.002523,0.000351,  12.362
   383.8,0.000602,0.000545,-0.002408,0.000351,  12.359
   384.0,0.000608,0.000553,-0.002355,0.000364,  12.357
   384.2,0.000611,0.000552,-0.002266,0.000327,  12.359
   384.4,0.000617,0.000555,-0.002203,0.000364,  12.361
   384.6,0.000621,0.000559,-0.002115,0.000378,  12.360
   384.8,0.000624,0.000566,-0.002061,0.000378,  12.363
   385.0,0.000630,0.000569,-0.002000,0.000378,  12.362
   385.2,0.000633,0.000577,-0.001964,0.000378,  12.363
   385.4,0.000633,0.000574,-0.001927,0.000378,  12.359
   385.6,0.000636,0.000579,-0.001893,0.000378,  12.359
   385.8,0.000639,0.000582,-0.001867,0.000378,  12.363
   386.0,0.000639,0.000577,-0.001850,0.000378,  12.366
   386.2,0.000642,0.000587,-0.001867,0.000378,  12.361
   386.4,0.000642,0.000589,-0.001886,0.000378,  12.366
   386.6,0.000642,0.000595,-0.001877,0.000378,  12.367
   386.8,0.000642,0.000588,-0.001825,0.000378,  12.364
   387.0,0.000642,0.000596,-0.001773,0.000378,  12.366
   387.2,0.000642,0.000590,-0.001729,0.000378,  12.366
   387.4,0.000645,0.000589,-0.001684,0.000378,  12.367
   387.6,0.000645,0.000583,-0.001648,0.000378,  12.371
   387.8,0.000645,0.000582,-0.001736,0.000378,  12.371
   388.0,0.000645,0.000578,-0.001905,0.000378,  12.371
   388.2,0.000645,0.000578,-0.002170,0.000378,  12.369
   388.4,0.000642,0.000582,-0.002134,0.000378,  12.370
   388.6,0.000639,0.000574,-0.002011,0.000378,  12.370
   388.8,0.000639,0.000571,-0.001807,0.000378,  12.368
   389.0,0.000642,0.000574,-0.001736,0.000378,  12.368
   389.2,0.000642,0.000563,-0.001711,0.000378,  12.374
   389.4,0.000642,0.000566,-0.001738,0.000391,  12.371
   389.6,0.000642,0.000571,-0.001711,0.000391,  12.374
   389.8,0.000642,0.000573,-0.001659,0.000391,  12.371
   390.0,0.000635,0.000571,-0.001615,0.000404,  12.375
   390.2,0.000638,0.000577,-0.001615,0.000404,  12.374
   390.4,0.000638,0.000579,-0.001617,0.000391,  12.372
   390.6,0.000627,0.000584,-0.001636,0.000378,  12.374
   390.8,0.000635,0.000583,-0.001503,0.000378,  12.375
   391.0,0.000636,0.000582,-0.001309,0.000378,  12.374
   391.2,0.000643,0.000579,-0.001060,0.000364,  12.375
   391.4,0.000640,0.000576,-0.001007,0.000364,  12.369
   391.6,0.000640,0.000571,-0.001008,0.000364,  12.376
   391.8,0.000643,0.000571,-0.001097,0.000351,  12.377
   392.0,0.000640,0.000574,-0.001141,0.000364,  12.378
   392.2,0.000630,0.000571,-0.001214,0.000351,  12.377
   392.4,0.000622,0.000569,-0.001322,0.000351,  12.375
   392.6,0.000616,0.000567,-0.001331,0.000351,  12.379
   392.8,0.000617,0.000563,-0.001295,0.000313,  12.378
   393.0,0.000614,0.000562,-0.001233,0.000337,  12.375
   393.2,0.000608,0.000555,-0.001135,0.000351,  12.378
   393.4,0.000602,0.000550,-0.001135,0.000300,  12.378
   393.6,0.000596,0.000545,-0.001162,0.000286,  12.379
   393.8,0.000586,0.000533,-0.001181,0.000286,  12.376
   394.0,0.000580,0.000531,-0.001146,0.000249,  12.378
   394.2,0.000588,0.000528,-0.001094,0.000273,  12.378
   394.4,0.000582,0.000526,-0.001023,0.000273,  12.378
   394.6,0.000582,0.000523,-0.001059,0.000235,  12.379
   394.8,0.000589,0.000519,-0.001157,0.000260,  12.376
   395.0,0.000583,0.000516,-0.001327,0.000260,  12.378
   395.2,0.000569,0.000514,-0.001361,0.000260,  12.376
   395.4,0.000566,0.000516,-0.001344,0.000284,  12.379
   395.6,0.000560,0.000511,-0.001327,0.000284,  12.376
   395.8,0.000554,0.000511,-0.001590,0.000297,  12.381
   396.0,0.000551,0.000508,-0.001953,0.000284,  12.379
   396.2,0.000547,0.000501,-0.002465,0.000284,  12.379
   396.4,0.000547,0.000503,-0.002438,0.000284,  12.379
   396.6,0.000537,0.000497,-0.002235,0.000270,  12.379
   396.8,0.000534,0.000494,-0.001838,0.000270,  12.381
   397.0,0.000531,0.000491,-0.001811,0.000270,  12.381
   397.2,0.000520,0.000488,-0.001900,0.000270,  12.378
   397.4,0.000517,0.000478,-0.002101,0.000270,  12.381
   397.6,0.000521,0.000484,-0.002092,0.000270,  12.380
   397.8,0.000524,0.000489,-0.002057,0.000270,  12.379
   398.0,0.000517,0.000487,-0.001978,0.000270,  12.381
   398.2,0.000517,0.000488,-0.001863,0.000270,  12.380
   398.4,0.000517,0.000493,-0.001748,0.000270,  12.382
   398.6,0.000510,0.000496,-0.001614,0.000295,  12.382
   398.8,0.000506,0.000490,-0.001648,0.000295,  12.380
   399.0,0.000511,0.000484,-0.001781,0.000295,  12.380
   399.2,0.000503,0.000482,-0.002002,0.000332,  12.383
   399.4,0.000508,0.000480,-0.001956,0.000332,  12.383
   399.6,0.000508,0.000477,-0.001814,0.000308,  12.382
   399.8,0.000508,0.000475,-0.001601,0.000284,  12.380
   400.0,0.000503,0.000481,-0.001891,0.000284,  12.385
   400.2,0.000508,0.000478,-0.002421,0.000270,  12.380
   400.4,0.000508,0.000483,-0.003170,0.000219,  12.382
   400.6,0.000503,0.000484,-0.003204,0.000219,  12.383
   400.8,0.000508,0.000484,-0.002976,0.000257,  12.379
   401.0,0.000508,0.000482,-0.002519,0.000257,  12.384
   401.2,0.000508,0.000480,-0.002386,0.000257,  12.380
   401.4,0.000512,0.000486,-0.002271,0.000257,  12.379
   401.6,0.000512,0.000486,-0.002192,0.000257,  12.378
   401.8,0.000512,0.000480,-0.002112,0.000257,  12.381
   402.0,0.000509,0.000478,-0.002024,0.000219,  12.381
   402.2,0.000509,0.000476,-0.001953,0.000257,  12.375
   402.4,0.000512,0.000470,-0.001899,0.000257,  12.375
   402.6,0.000512,0.000464,-0.001836,0.000257,  12.379
   402.8,0.000515,0.000471,-0.001757,0.000257,  12.383
   403.0,0.000515,0.000477,-0.001696,0.000257,  12.376
   403.2,0.000518,0.000480,-0.001624,0.000257,  12.380
   403.4,0.000521,0.000477,-0.001588,0.000257,  12.375
   403.6,0.000518,0.000481,-0.001544,0.000295,  12.378
   403.8,0.000518,0.000484,-0.001446,0.000295,  12.379
   404.0,0.000521,0.000486,-0.001321,0.000281,  12.375
   404.2,0.000518,0.000483,-0.001187,0.000332,  12.377
   404.4,0.000518,0.000485,-0.001346,0.000332,  12.378
   404.6,0.000521,0.000488,-0.001640,0.000295,  12.378
   404.8,0.000521,0.000484,-0.002095,0.000295,  12.377
   405.0,0.000521,0.000484,-0.002175,0.000295,  12.376
   405.2,0.000524,0.000484,-0.002156,0.000295,  12.375
   405.4,0.000517,0.000477,-0.002041,0.000295,  12.374
   405.6,0.000517,0.000480,-0.001970,0.000295,  12.373
   405.8,0.000520,0.000485,-0.001907,0.000295,  12.372
   406.0,0.000513,0.000485,-0.001809,0.000295,  12.372
   406.2,0.000520,0.000485,-0.002214,0.000295,  12.374
   406.4,0.000523,0.000488,-0.002866,0.000295,  12.371
   406.6,0.000513,0.000488,-0.003763,0.000295,  12.375
   406.8,0.000514,0.000480,-0.003790,0.000295,  12.372
   407.0,0.000517,0.000477,-0.003561,0.000295,  12.372
   407.2,0.000510,0.000480,-0.003008,0.000270,  12.370
   407.4,0.000514,0.000484,-0.002805,0.000270,  12.370
   407.6,0.000514,0.000487,-0.002654,0.000270,  12.372
   407.8,0.000510,0.000487,-0.002539,0.000246,  12.373
   408.0,0.000510,0.000490,-0.002414,0.000246,  12.373
   408.2,0.000517,0.000498,-0.002292,0.000270,  12.372
   408.4,0.000516,0.000503,-0.002213,0.000270,  12.372
   408.6,0.000529,0.000502,-0.002238,0.000297,  12.372
   408.8,0.000543,0.000504,-0.002317,0.000311,  12.369
   409.0,0.000563,0.000505,-0.002441,0.000324,  12.373
   409.2,0.000572,0.000509,-0.002468,0.000337,  12.370
   409.4,0.000582,0.000511,-0.002503,0.000337,  12.374
   409.6,0.000591,0.000518,-0.002495,0.000337,  12.375
   409.8,0.000600,0.000534,-0.002424,0.000351,  12.368
   410.0,0.000599,0.000543,-0.002343,0.000351,  12.369
   410.2,0.000598,0.000543,-0.002244,0.000351,  12.370
   410.4,0.000604,0.000553,-0.002198,0.000364,  12.369
   410.6,0.000614,0.000558,-0.002137,0.000327,  12.371
   410.8,0.000617,0.000552,-0.002118,0.000364,  12.370
   411.0,0.000617,0.000558,-0.002075,0.000378,  12.373
   411.2,0.000617,0.000558,-0.002112,0.000378,  12.367
   411.4,0.000621,0.000552,-0.002183,0.000364,  12.365
   411.6,0.000624,0.000558,-0.002280,0.000378,  12.368
   411.8,0.000624,0.000558,-0.002298,0.000378,  12.370
   412.0,0.000627,0.000558,-0.002290,0.000364,  12.371
   412.2,0.000627,0.000563,-0.002273,0.000378,  12.368
   412.4,0.000630,0.000566,-0.002545,0.000378,  12.370
   412.6,0.000633,0.000563,-0.002942,0.000364,  12.371
   412.8,0.000633,0.000557,-0.003477,0.000378,  12.369
   413.0,0.000633,0.000557,-0.003451,0.000378,  12.368
   413.2,0.000636,0.000557,-0.003213,0.000378,  12.373
   413.4,0.000636,0.000557,-0.002773,0.000378,  12.371
   413.6,0.000636,0.000566,-0.002632,0.000378,  12.368
   413.8,0.000639,0.000563,-0.002536,0.000378,  12.368
   414.0,0.000636,0.000563,-0.002484,0.000378,  12.372
   414.2,0.000636,0.000565,-0.002351,0.000378,  12.368
   414.4,0.000639,0.000568,-0.002236,0.000378,  12.369
   414.6,0.000632,0.000566,-0.002087,0.000378,  12.373
   414.8,0.000632,0.000572,-0.002008,0.000378,  12.372
   415.0,0.000635,0.000571,-0.001990,0.000378,  12.374
   415.2,0.000627,0.000568,-0.002000,0.000378,  12.373
   415.4,0.000635,0.000570,-0.002503,0.000378,  12.373
   415.6,0.000635,0.000569,-0.003269,0.000378,  12.374
   415.8,0.000627,0.000561,-0.004313,0.000378,  12.375
   416.0,0.000635,0.000570,-0.004286,0.000378,  12.373
   416.2,0.000635,0.000575,-0.003866,0.000378,  12.376
   416.4,0.000627,0.000566,-0.003067,0.000378,  12.376
   416.6,0.000632,0.000571,-0.002820,0.000378,  12.376
   416.8,0.000632,0.000568,-0.002629,0.000378,  12.383
   417.0,0.000624,0.000571,-0.002550,0.000378,  12.380
   417.2,0.000627,0.000573,-0.002435,0.000378,  12.374
   417.4,0.000632,0.000573,-0.002312,0.000364,  12.378
   417.6,0.000624,0.000570,-0.002216,0.000378,  12.381
   417.8,0.000632,0.000567,-0.002128,0.000378,  12.383
   418.0,0.000629,0.000564,-0.002049,0.000364,  12.379
   418.2,0.000632,0.000559,-0.002014,0.000378,  12.379
   418.4,0.000618,0.000558,-0.001899,0.000378,  12.380
   418.6,0.000622,0.000555,-0.001759,0.000364,  12.384
   418.8,0.000619,0.000551,-0.001599,0.000364,  12.379
   419.0,0.000606,0.000554,-0.001528,0.000364,  12.382
   419.2,0.000607,0.000556,-0.001503,0.000351,  12.379
   419.4,0.000601,0.000548,-0.001513,0.000337,  12.380
   419.6,0.000587,0.000543,-0.001486,0.000337,  12.379
   419.8,0.000588,0.000540,-0.001441,0.000286,  12.384
   420.0,0.000585,0.000536,-0.001424,0.000311,  12.382
   420.2,0.000575,0.000528,-0.001372,0.000311,  12.383
   420.4,0.000576,0.000528,-0.001355,0.000311,  12.382
   420.6,0.000573,0.000524,-0.001355,0.000297,  12.384
   420.8,0.000562,0.000521,-0.001382,0.000297,  12.384
   421.0,0.000564,0.000519,-0.001355,0.000297,  12.385
   421.2,0.000560,0.000520,-0.001303,0.000297,  12.382
   421.4,0.000550,0.000518,-0.001268,0.000297,  12.386
   421.6,0.000551,0.000518,-0.001303,0.000297,  12.386
   421.8,0.000548,0.000510,-0.001356,0.000297,  12.387
   422.0,0.000537,0.000502,-0.001472,0.000297,  12.390
   422.2,0.000542,0.000500,-0.001489,0.000297,  12.388
   422.4,0.000545,0.000497,-0.001489,0.000297,  12.388
   422.6,0.000534,0.000501,-0.001464,0.000297,  12.390
   422.8,0.000539,0.000509,-0.001429,0.000297,  12.388
   423.0,0.000539,0.000509,-0.001385,0.000284,  12.393
   423.2,0.000531,0.000509,-0.001358,0.000284,  12.392
   423.4,0.000536,0.000509,-0.001508,0.000297,  12.389
   423.6,0.000536,0.000504,-0.001764,0.000284,  12.388
   423.8,0.000528,0.000506,-0.002125,0.000284,  12.388
   424.0,0.000533,0.000504,-0.002142,0.000297,  12.391
   424.2,0.000533,0.000498,-0.002054,0.000284,  12.388
   424.4,0.000529,0.000495,-0.001835,0.000284,  12.391
   424.6,0.000534,0.000498,-0.001729,0.000297,  12.394
   424.8,0.000541,0.000498,-0.001666,0.000284,  12.390
   425.0,0.000544,0.000501,-0.001587,0.000284,  12.390
   425.2,0.000547,0.000504,-0.001570,0.000297,  12.393
   425.4,0.000551,0.000504,-0.001631,0.000284,  12.388
   425.6,0.000543,0.000508,-0.001729,0.000284,  12.390
   425.8,0.000546,0.000508,-0.001746,0.000284,  12.392
   426.0,0.000543,0.000512,-0.001764,0.000270,  12.389
   426.2,0.000536,0.000509,-0.001765,0.000270,  12.390
   426.4,0.000537,0.000510,-0.001721,0.000270,  12.393
   426.6,0.000537,0.000502,-0.001675,0.000270,  12.392
   426.8,0.000537,0.000502,-0.001612,0.000270,  12.390
   427.0,0.000537,0.000499,-0.001595,0.000270,  12.393
   427.2,0.000534,0.000493,-0.001612,0.000270,  12.394
   427.4,0.000534,0.000485,-0.001682,0.000270,  12.396
   427.6,0.000537,0.000486,-0.001876,0.000270,  12.391
   427.8,0.000537,0.000489,-0.002175,0.000270,  12.395
   428.0,0.000537,0.000489,-0.002580,0.000270,  12.392
   428.2,0.000543,0.000492,-0.002659,0.000270,  12.394
   428.4,0.000543,0.000497,-0.002605,0.000284,  12.390
   428.6,0.000540,0.000495,-0.002456,0.000270,  12.393
   428.8,0.000537,0.000490,-0.002181,0.000270,  12.391
   429.0,0.000531,0.000496,-0.002101,0.000233,  12.390
   429.2,0.000535,0.000496,-0.002030,0.000270,  12.391
   429.4,0.000532,0.000490,-0.001951,0.000257,  12.391
   429.6,0.000529,0.000488,-0.001951,0.000257,  12.392
   429.8,0.000532,0.000483,-0.002005,0.000257,  12.393
   430.0,0.000535,0.000481,-0.002120,0.000257,  12.394
   430.2,0.000528,0.000479,-0.002101,0.000257,  12.393
   430.4,0.000523,0.000476,-0.002028,0.000270,  12.393
   430.6,0.000516,0.000476,-0.001904,0.000284,  12.390
   430.8,0.000520,0.000480,-0.002238,0.000284,  12.389
   431.0,0.000523,0.000483,-0.002767,0.000270,  12.389
   431.2,0.000520,0.000480,-0.003481,0.000257,  12.392
   431.4,0.000524,0.000484,-0.003664,0.000257,  12.391
   431.6,0.000528,0.000481,-0.003656,0.000257,  12.393
   431.8,0.000524,0.000476,-0.003498,0.000244,  12.393
   432.0,0.000521,0.000479,-0.003400,0.000244,  12.391
   432.2,0.000526,0.000477,-0.003226,0.000257,  12.392
   432.4,0.000527,0.000469,-0.002998,0.000270,  12.392
   432.6,0.000533,0.000472,-0.002795,0.000270,  12.394
   432.8,0.000533,0.000472,-0.002610,0.000270,  12.388
   433.0,0.000528,0.000469,-0.002432,0.000284,  12.394
   433.2,0.000527,0.000473,-0.002528,0.000284,  12.393
   433.4,0.000523,0.000473,-0.002748,0.000270,  12.387
   433.6,0.000526,0.000477,-0.003127,0.000270,  12.394
   433.8,0.000523,0.000475,-0.003064,0.000270,  12.390
   434.0,0.000526,0.000477,-0.002879,0.000270,  12.390
   434.2,0.000526,0.000480,-0.002534,0.000270,  12.392
   434.4,0.000526,0.000482,-0.002436,0.000270,  12.390
   434.6,0.000529,0.000487,-0.002384,0.000270,  12.393
   434.8,0.000524,0.000484,-0.002403,0.000270,  12.388
   435.0,0.000528,0.000484,-0.002384,0.000284,  12.392
   435.2,0.000531,0.000489,-0.002358,0.000297,  12.386
   435.4,0.000533,0.000490,-0.002348,0.000311,  12.392
   435.6,0.000549,0.000503,-0.002929,0.000311,  12.394
   435.8,0.000562,0.000512,-0.003807,0.000324,  12.392
   436.0,0.000582,0.000513,-0.004981,0.000337,  12.391
   436.2,0.000591,0.000525,-0.005042,0.000337,  12.393
   436.4,0.000597,0.000532,-0.004684,0.000351,  12.391
   436.6,0.000611,0.000532,-0.003957,0.000351,  12.394
   436.8,0.000617,0.000540,-0.003641,0.000351,  12.392
   437.0,0.000612,0.000544,-0.003350,0.000364,  12.393
   437.2,0.000612,0.000544,-0.003069,0.000364,  12.392
   437.4,0.000627,0.000553,-0.002866,0.000378,  12.393
   437.6,0.000636,0.000556,-0.002715,0.000327,  12.394
   437.8,0.000632,0.000552,-0.002592,0.000364,  12.392
   438.0,0.000635,0.000554,-0.002521,0.000378,  12.393
   438.2,0.000630,0.000553,-0.002433,0.000378,  12.394
   438.4,0.000629,0.000558,-0.002362,0.000378,  12.390
   438.6,0.000632,0.000556,-0.002318,0.000391,  12.394
   438.8,0.000639,0.000561,-0.002301,0.000391,  12.391
   439.0,0.000637,0.000561,-0.002310,0.000391,  12.394
   439.2,0.000640,0.000562,-0.002364,0.000391,  12.395
   439.4,0.000640,0.000566,-0.002699,0.000391,  12.391
   439.6,0.000643,0.000568,-0.003193,0.000378,  12.393
   439.8,0.000643,0.000567,-0.003827,0.000364,  12.397
   440.0,0.000643,0.000567,-0.003802,0.000364,  12.397
   440.2,0.000647,0.000566,-0.003565,0.000378,  12.396
   440.4,0.000643,0.000571,-0.003099,0.000378,  12.396
   440.6,0.000643,0.000568,-0.002905,0.000378,  12.395
   440.8,0.000639,0.000563,-0.002739,0.000378,  12.396
   441.0,0.000639,0.000559,-0.002624,0.000378,  12.395
   441.2,0.000639,0.000563,-0.002536,0.000378,  12.397
   441.4,0.000635,0.000561,-0.002518,0.000378,  12.398
   441.6,0.000635,0.000561,-0.002503,0.000378,  12.398
   441.8,0.000642,0.000566,-0.002380,0.000378,  12.399
   442.0,0.000642,0.000571,-0.002265,0.000378,  12.398
   442.2,0.000642,0.000567,-0.002105,0.000378,  12.397
   442.4,0.000642,0.000564,-0.002071,0.000378,  12.395
   442.6,0.000642,0.000567,-0.002090,0.000378,  12.396
   442.8,0.000642,0.000564,-0.002170,0.000378,  12.398
   443.0,0.000642,0.000568,-0.002109,0.000378,  12.399
   443.2,0.000642,0.000568,-0.002028,0.000378,  12.402
   443.4,0.000642,0.000568,-0.001904,0.000378,  12.400
   443.6,0.000642,0.000571,-0.001850,0.000378,  12.401
   443.8,0.000642,0.000571,-0.001815,0.000378,  12.402
   444.0,0.000639,0.000573,-0.001790,0.000378,  12.402
   444.2,0.000636,0.000570,-0.001755,0.000378,  12.404
   444.4,0.000640,0.000570,-0.001755,0.000378,  12.404
   444.6,0.000633,0.000565,-0.001748,0.000378,  12.406
   444.8,0.000630,0.000564,-0.001721,0.000378,  12.404
   445.0,0.000627,0.000559,-0.001677,0.000364,  12.399
   445.2,0.000619,0.000549,-0.001624,0.000378,  12.406
   445.4,0.000616,0.000553,-0.001598,0.000364,  12.409
   445.6,0.000617,0.000551,-0.001590,0.000351,  12.409
   445.8,0.000614,0.000543,-0.001599,0.000351,  12.409
   446.0,0.000608,0.000544,-0.001572,0.000337,  12.409
   446.2,0.000602,0.000542,-0.001520,0.000351,  12.409
   446.4,0.000596,0.000536,-0.001476,0.000324,  12.407
   446.6,0.000586,0.000528,-0.001449,0.000337,  12.408
   446.8,0.000577,0.000524,-0.001415,0.000286,  12.409
   447.0,0.000571,0.000524,-0.001405,0.000311,  12.408
   447.2,0.000565,0.000522,-0.001397,0.000311,  12.411
   447.4,0.000559,0.000519,-0.001662,0.000311,  12.412
   447.6,0.000552,0.000511,-0.002077,0.000297,  12.409
   447.8,0.000549,0.000500,-0.002607,0.000297,  12.414
   448.0,0.000543,0.000496,-0.002641,0.000297,  12.412
   448.2,0.000543,0.000491,-0.002501,0.000297,  12.412
   448.4,0.000543,0.000493,-0.002167,0.000297,  12.408
   448.6,0.000537,0.000488,-0.002070,0.000297,  12.411
   448.8,0.000537,0.000480,-0.001991,0.000284,  12.413
   449.0,0.000540,0.000486,-0.001929,0.000284,  12.411
   449.2,0.000537,0.000489,-0.001849,0.000284,  12.413
   449.4,0.000534,0.000483,-0.001760,0.000270,  12.411
   449.6,0.000534,0.000481,-0.001672,0.000270,  12.413
   449.8,0.000531,0.000481,-0.001574,0.000270,  12.415
   450.0,0.000528,0.000475,-0.001494,0.000270,  12.411
   450.2,0.000524,0.000478,-0.001396,0.000270,  12.412
   450.4,0.000521,0.000475,-0.001378,0.000270,  12.415
   450.6,0.000524,0.000470,-0.001413,0.000270,  12.417
   450.8,0.000528,0.000470,-0.001474,0.000270,  12.420
   451.0,0.000528,0.000469,-0.001484,0.000284,  12.412
   451.2,0.000531,0.000466,-0.001484,0.000284,  12.418
   451.4,0.000524,0.000470,-0.001474,0.000284,  12.419
   451.6,0.000518,0.000472,-0.001465,0.000297,  12.417
   451.8,0.000526,0.000472,-0.001448,0.000284,  12.414
   452.0,0.000526,0.000467,-0.001448,0.000284,  12.420
   452.2,0.000523,0.000468,-0.001455,0.000284,  12.419
   452.4,0.000523,0.000462,-0.001455,0.000270,  12.417
   452.6,0.000526,0.000462,-0.001500,0.000257,  12.416
   452.8,0.000515,0.000462,-0.001632,0.000257,  12.417
   453.0,0.000515,0.000459,-0.001844,0.000257,  12.415
   453.2,0.000508,0.000462,-0.002126,0.000244,  12.420
   453.4,0.000515,0.000466,-0.002143,0.000244,  12.417
   453.6,0.000512,0.000466,-0.002055,0.000257,  12.418
   453.8,0.000505,0.000464,-0.001905,0.000257,  12.419
   454.0,0.000512,0.000470,-0.001834,0.000257,  12.418
   454.2,0.000515,0.000473,-0.001781,0.000257,  12.414
   454.4,0.000515,0.000467,-0.001736,0.000257,  12.413
   454.6,0.000518,0.000473,-0.001736,0.000257,  12.413
   454.8,0.000515,0.000473,-0.001763,0.000257,  12.415
   455.0,0.000515,0.000462,-0.001852,0.000257,  12.415
   455.2,0.000515,0.000463,-0.001877,0.000257,  12.416
   455.4,0.000512,0.000460,-0.001859,0.000270,  12.419
   455.6,0.000512,0.000459,-0.001842,0.000270,  12.419
   455.8,0.000512,0.000464,-0.001877,0.000270,  12.416
   456.0,0.000512,0.000464,-0.001921,0.000233,  12.418
   456.2,0.000515,0.000465,-0.001992,0.000270,  12.417
   456.4,0.000518,0.000469,-0.002072,0.000270,  12.420
   456.6,0.000521,0.000469,-0.002098,0.000270,  12.419
   456.8,0.000524,0.000469,-0.002098,0.000270,  12.417
   457.0,0.000521,0.000469,-0.002080,0.000270,  12.416
   457.2,0.000518,0.000466,-0.002009,0.000284,  12.414
   457.4,0.000518,0.000469,-0.001921,0.000284,  12.416
   457.6,0.000518,0.000470,-0.001823,0.000284,  12.416
   457.8,0.000515,0.000470,-0.001804,0.000284,  12.417
   458.0,0.000518,0.000476,-0.001796,0.000270,  12.415
   458.2,0.000521,0.000469,-0.001858,0.000270,  12.418
   458.4,0.000524,0.000477,-0.001866,0.000270,  12.414
   458.6,0.000528,0.000477,-0.001858,0.000270,  12.418
   458.8,0.000524,0.000475,-0.001893,0.000270,  12.417
   459.0,0.000524,0.000484,-0.001900,0.000270,  12.416
   459.2,0.000528,0.000486,-0.001883,0.000270,  12.415
   459.4,0.000524,0.000484,-0.001900,0.000270,  12.415
   459.6,0.000521,0.000478,-0.001881,0.000270,  12.417
   459.8,0.000524,0.000477,-0.001837,0.000270,  12.420
   460.0,0.000521,0.000472,-0.001785,0.000270,  12.417
   460.2,0.000518,0.000474,-0.001847,0.000270,  12.416
   460.4,0.000524,0.000477,-0.001970,0.000270,  12.416
   460.6,0.000528,0.000477,-0.002113,0.000270,  12.417
   460.8,0.000534,0.000485,-0.002131,0.000246,  12.418
   461.0,0.000537,0.000488,-0.002112,0.000246,  12.411
   461.2,0.000536,0.000492,-0.002041,0.000246,  12.414
   461.4,0.000546,0.000492,-0.002102,0.000235,  12.417
   461.6,0.000549,0.000493,-0.002200,0.000273,  12.417
   461.8,0.000548,0.000497,-0.002376,0.000286,  12.416
   462.0,0.000565,0.000507,-0.002455,0.000262,  12.415
   462.2,0.000571,0.000514,-0.002499,0.000300,  12.415
   462.4,0.000580,0.000516,-0.002543,0.000313,  12.417
   462.6,0.000590,0.000522,-0.002534,0.000276,  12.413
   462.8,0.000596,0.000529,-0.002515,0.000300,  12.419
   463.0,0.000602,0.000528,-0.002471,0.000300,  12.418
   463.2,0.000608,0.000533,-0.002452,0.000300,  12.415
   463.4,0.000611,0.000538,-0.002408,0.000313,  12.417
   463.6,0.000617,0.000543,-0.002373,0.000313,  12.419
   463.8,0.000616,0.000548,-0.002329,0.000289,  12.417
   464.0,0.000619,0.000555,-0.002293,0.000327,  12.418
   464.2,0.000625,0.000554,-0.002241,0.000327,  12.418
   464.4,0.000621,0.000561,-0.002222,0.000340,  12.423
   464.6,0.000625,0.000566,-0.002187,0.000302,  12.415
   464.8,0.000629,0.000560,-0.002187,0.000327,  12.421
   465.0,0.000629,0.000564,-0.002179,0.000340,  12.413
   465.2,0.000636,0.000566,-0.002153,0.000302,  12.419
   465.4,0.000647,0.000564,-0.002101,0.000340,  12.420
   465.6,0.000640,0.000569,-0.002049,0.000353,  12.421
   465.8,0.000637,0.000571,-0.001995,0.000316,  12.423
   466.0,0.000648,0.000569,-0.001941,0.000353,  12.421
   466.2,0.000651,0.000569,-0.001888,0.000367,  12.419
   466.4,0.000650,0.000569,-0.001905,0.000329,  12.418
   466.6,0.000645,0.000571,-0.001951,0.000353,  12.421
   466.8,0.000645,0.000569,-0.002016,0.000340,  12.422
   467.0,0.000645,0.000575,-0.002008,0.000302,  12.424
   467.2,0.000641,0.000571,-0.002008,0.000340,  12.417
   467.4,0.000641,0.000575,-0.001973,0.000327,  12.421
   467.6,0.000645,0.000575,-0.001946,0.000289,  12.422
   467.8,0.000642,0.000579,-0.001929,0.000340,  12.419
   468.0,0.000642,0.000571,-0.001894,0.000340,  12.421
   468.2,0.000642,0.000573,-0.001894,0.000302,  12.426
   468.4,0.000639,0.000573,-0.001921,0.000327,  12.423
   468.6,0.000632,0.000568,-0.001957,0.000340,  12.424
   468.8,0.000632,0.000568,-0.001913,0.000302,  12.427
   469.0,0.000635,0.000563,-0.001850,0.000327,  12.430
   469.2,0.000627,0.000563,-0.001744,0.000340,  12.429
   469.4,0.000632,0.000565,-0.001744,0.000302,  12.428
   469.6,0.000632,0.000565,-0.001754,0.000327,  12.428
   469.8,0.000630,0.000563,-0.001834,0.000340,  12.430
   470.0,0.000627,0.000564,-0.001781,0.000340,  12.428
   470.2,0.000635,0.000564,-0.001700,0.000364,  12.432
   470.4,0.000624,0.000561,-0.001567,0.000378,  12.427
   470.6,0.000632,0.000567,-0.001992,0.000378,  12.429
   470.8,0.000629,0.000567,-0.002698,0.000364,  12.430
   471.0,0.000632,0.000566,-0.003648,0.000378,  12.433
   471.2,0.000618,0.000562,-0.003623,0.000378,  12.433
   471.4,0.000622,0.000557,-0.003289,0.000364,  12.432
   471.6,0.000622,0.000557,-0.002594,0.000364,  12.433
   471.8,0.000609,0.000554,-0.002400,0.000364,  12.434
   472.0,0.000610,0.000548,-0.002287,0.000364,  12.436
   472.2,0.000604,0.000543,-0.002254,0.000351,  12.435
   472.4,0.000593,0.000540,-0.002175,0.000351,  12.434
   472.6,0.000591,0.000540,-0.002089,0.000313,  12.433
   472.8,0.000585,0.000532,-0.002037,0.000337,  12.438
   473.0,0.000572,0.000528,-0.001940,0.000351,  12.434
   473.2,0.000573,0.000525,-0.001852,0.000337,  12.433
   473.4,0.000570,0.000520,-0.001764,0.000324,  12.436
   473.6,0.000556,0.000525,-0.001683,0.000324,  12.438
   473.8,0.000560,0.000521,-0.001595,0.000324,  12.436
   474.0,0.000562,0.000513,-0.001516,0.000311,  12.436
   474.2,0.000555,0.000513,-0.001479,0.000311,  12.437
   474.4,0.000558,0.000511,-0.001506,0.000311,  12.437
   474.6,0.000555,0.000506,-0.001604,0.000297,  12.437
   474.8,0.000555,0.000505,-0.001739,0.000297,  12.437
   475.0,0.000544,0.000499,-0.001667,0.000297,  12.435
   475.2,0.000534,0.000499,-0.001560,0.000297,  12.433
   475.4,0.000534,0.000490,-0.001364,0.000297,  12.441
   475.6,0.000531,0.000493,-0.001337,0.000297,  12.445
   475.8,0.000523,0.000487,-0.001382,0.000297,  12.438
   476.0,0.000516,0.000485,-0.001454,0.000297,  12.436
   476.2,0.000526,0.000486,-0.001445,0.000297,  12.440
   476.4,0.000526,0.000480,-0.001435,0.000297,  12.442
   476.6,0.000519,0.000483,-0.001391,0.000297,  12.440
   476.8,0.000520,0.000484,-0.001337,0.000297,  12.442
   477.0,0.000520,0.000482,-0.001266,0.000284,  12.442
   477.2,0.000506,0.000477,-0.001195,0.000284,  12.441
   477.4,0.000511,0.000478,-0.001185,0.000297,  12.439
   477.6,0.000511,0.000478,-0.001211,0.000284,  12.440
   477.8,0.000508,0.000467,-0.001264,0.000284,  12.445
   478.0,0.000509,0.000473,-0.001247,0.000284,  12.442
   478.2,0.000509,0.000473,-0.001263,0.000270,  12.443
   478.4,0.000512,0.000465,-0.001263,0.000257,  12.446
   478.6,0.000512,0.000468,-0.001263,0.000257,  12.441
   478.8,0.000512,0.000463,-0.001298,0.000257,  12.442
   479.0,0.000508,0.000458,-0.001324,0.000244,  12.444
   479.2,0.000512,0.000460,-0.001298,0.000244,  12.443
   479.4,0.000512,0.000458,-0.001244,0.000257,  12.442
   479.6,0.000505,0.000460,-0.001190,0.000257,  12.445
   479.8,0.000512,0.000464,-0.001233,0.000257,  12.443
   480.0,0.000505,0.000461,-0.001269,0.000257,  12.441
   480.2,0.000505,0.000465,-0.001375,0.000257,  12.443
   480.4,0.000497,0.000461,-0.001586,0.000257,  12.445
   480.6,0.000502,0.000457,-0.001878,0.000257,  12.446
   480.8,0.000502,0.000453,-0.002251,0.000257,  12.446
   481.0,0.000494,0.000452,-0.002329,0.000257,  12.442
   481.2,0.000498,0.000455,-0.002303,0.000270,  12.443
   481.4,0.000498,0.000455,-0.002188,0.000270,  12.443
   481.6,0.000494,0.000463,-0.002143,0.000270,  12.445
   481.8,0.000505,0.000463,-0.002080,0.000233,  12.442
   482.0,0.000505,0.000460,-0.001992,0.000270,  12.440
   482.2,0.000497,0.000466,-0.001911,0.000270,  12.445
   482.4,0.000505,0.000466,-0.001910,0.000270,  12.442
   482.6,0.000505,0.000462,-0.001902,0.000270,  12.438
   482.8,0.000494,0.000466,-0.001938,0.000257,  12.441
   483.0,0.000491,0.000460,-0.001894,0.000257,  12.443
   483.2,0.000488,0.000462,-0.001875,0.000257,  12.440
   483.4,0.000488,0.000460,-0.001839,0.000244,  12.440
   483.6,0.000488,0.000457,-0.001856,0.000244,  12.440
   483.8,0.000488,0.000459,-0.001910,0.000257,  12.440
   484.0,0.000488,0.000462,-0.002016,0.000257,  12.440
   484.2,0.000491,0.000467,-0.002068,0.000257,  12.443
   484.4,0.000494,0.000467,-0.002112,0.000257,  12.442
   484.6,0.000497,0.000470,-0.002148,0.000270,  12.442
   484.8,0.000494,0.000466,-0.002175,0.000270,  12.440
   485.0,0.000494,0.000465,-0.002219,0.000270,  12.441
   485.2,0.000505,0.000467,-0.002238,0.000284,  12.442
   485.4,0.000509,0.000464,-0.002211,0.000284,  12.439
   485.6,0.000509,0.000464,-0.002184,0.000270,  12.438
   485.8,0.000512,0.000462,-0.002113,0.000295,  12.443
   486.0,0.000509,0.000468,-0.002087,0.000295,  12.442
   486.2,0.000512,0.000467,-0.002085,0.000281,  12.441
   486.4,0.000515,0.000461,-0.002077,0.000319,  12.440
   486.6,0.000518,0.000463,-0.002060,0.000319,  12.439
   486.8,0.000521,0.000457,-0.002068,0.000295,  12.440
   487.0,0.000518,0.000460,-0.002077,0.000270,  12.437
   487.2,0.000518,0.000459,-0.002050,0.000270,  12.440
   487.4,0.000518,0.000453,-0.002041,0.000270,  12.437
   487.6,0.000517,0.000464,-0.002023,0.000246,  12.436
   487.8,0.000528,0.000470,-0.001987,0.000260,  12.439
   488.0,0.000537,0.000474,-0.001968,0.000297,  12.437
   488.2,0.000539,0.000485,-0.001941,0.000311,  12.439
   488.4,0.000555,0.000495,-0.002118,0.000324,  12.437
   488.6,0.000565,0.000499,-0.002375,0.000337,  12.437
   488.8,0.000574,0.000509,-0.002713,0.000351,  12.437
   489.0,0.000576,0.000515,-0.002721,0.000351,  12.437
   489.2,0.000582,0.000519,-0.002587,0.000351,  12.440
   489.4,0.000588,0.000524,-0.002321,0.000351,  12.437
   489.6,0.000587,0.000531,-0.002241,0.000351,  12.437
   489.8,0.000598,0.000533,-0.002205,0.000364,  12.440
   490.0,0.000601,0.000535,-0.002214,0.000351,  12.439
   490.2,0.000596,0.000543,-0.002205,0.000364,  12.438
   490.4,0.000607,0.000542,-0.002187,0.000327,  12.437
   490.6,0.000610,0.000539,-0.002205,0.000364,  12.438
   490.8,0.000606,0.000534,-0.002222,0.000378,  12.440
   491.0,0.000613,0.000536,-0.002160,0.000378,  12.440
   491.2,0.000616,0.000538,-0.002089,0.000364,  12.438
   491.4,0.000612,0.000538,-0.002001,0.000378,  12.437
   491.6,0.000609,0.000541,-0.002001,0.000378,  12.437
   491.8,0.000609,0.000546,-0.002072,0.000378,  12.438
   492.0,0.000612,0.000552,-0.002145,0.000378,  12.441
   492.2,0.000612,0.000554,-0.002039,0.000378,  12.441
   492.4,0.000612,0.000554,-0.001880,0.000378,  12.441
   492.6,0.000612,0.000554,-0.001667,0.000378,  12.439
   492.8,0.000616,0.000554,-0.001659,0.000378,  12.440
   493.0,0.000619,0.000554,-0.001722,0.000378,  12.441
   493.2,0.000612,0.000552,-0.001908,0.000378,  12.439
   493.4,0.000622,0.000555,-0.001899,0.000378,  12.445
   493.6,0.000625,0.000549,-0.001828,0.000378,  12.444
   493.8,0.000611,0.000545,-0.001720,0.000378,  12.443
   494.0,0.000614,0.000548,-0.001701,0.000378,  12.445
   494.2,0.000617,0.000547,-0.001686,0.000378,  12.441
   494.4,0.000614,0.000546,-0.001670,0.000378,  12.443
   494.6,0.000621,0.000553,-0.001697,0.000378,  12.443
   494.8,0.000624,0.000551,-0.001750,0.000378,  12.443
   495.0,0.000621,0.000552,-0.001831,0.000378,  12.445
   495.2,0.000621,0.000556,-0.002025,0.000378,  12.443
   495.4,0.000624,0.000554,-0.002274,0.000378,  12.442
   495.6,0.000624,0.000552,-0.002636,0.000378,  12.447
   495.8,0.000624,0.000560,-0.002636,0.000378,  12.442
   496.0,0.000624,0.000560,-0.002487,0.000378,  12.446
   496.2,0.000630,0.000552,-0.002232,0.000378,  12.447
   496.4,0.000627,0.000554,-0.002099,0.000378,  12.445
   496.6,0.000627,0.000551,-0.001975,0.000378,  12.447
   496.8,0.000624,0.000551,-0.001869,0.000378,  12.447
   497.0,0.000632,0.000553,-0.001771,0.000378,  12.446
   497.2,0.000629,0.000550,-0.001648,0.000364,  12.446
   497.4,0.000629,0.000550,-0.001569,0.000378,  12.444
   497.6,0.000618,0.000550,-0.001552,0.000378,  12.449
   497.8,0.000619,0.000548,-0.001553,0.000364,  12.442
   498.0,0.000616,0.000546,-0.001617,0.000364,  12.450
   498.2,0.000603,0.000548,-0.001582,0.000364,  12.445
   498.4,0.000593,0.000545,-0.001539,0.000364,  12.449
   498.6,0.000590,0.000535,-0.001478,0.000351,  12.451
   498.8,0.000581,0.000532,-0.001478,0.000364,  12.447
   499.0,0.000575,0.000525,-0.001478,0.000327,  12.450
   499.2,0.000568,0.000522,-0.001497,0.000351,  12.451
   499.4,0.000562,0.000520,-0.001533,0.000364,  12.449
   499.6,0.000553,0.000509,-0.001498,0.000337,  12.449
   499.8,0.000547,0.000510,-0.001472,0.000324,  12.448
   500.0,0.000544,0.000503,-0.001445,0.000337,  12.450
   500.2,0.000544,0.000495,-0.001445,0.000286,  12.449
   500.4,0.000537,0.000498,-0.001454,0.000286,  12.446
   500.6,0.000534,0.000493,-0.001498,0.000286,  12.450
   500.8,0.000528,0.000494,-0.001464,0.000273,  12.451
   501.0,0.000525,0.000484,-0.001427,0.000297,  12.448
   501.2,0.000522,0.000487,-0.001401,0.000297,  12.447
   501.4,0.000516,0.000485,-0.001506,0.000297,  12.450
   501.6,0.000513,0.000485,-0.001666,0.000297,  12.447
   501.8,0.000513,0.000485,-0.001931,0.000335,  12.447
   502.0,0.000513,0.000488,-0.001931,0.000335,  12.449
   502.2,0.000516,0.000485,-0.001816,0.000335,  12.450
   502.4,0.000513,0.000485,-0.001647,0.000335,  12.451
   502.6,0.000510,0.000479,-0.001568,0.000335,  12.450
   502.8,0.000510,0.000476,-0.001532,0.000297,  12.450
   503.0,0.000506,0.000476,-0.001505,0.000260,  12.452
   503.2,0.000508,0.000468,-0.001468,0.000260,  12.448
   503.4,0.000508,0.000460,-0.001451,0.000284,  12.447
   503.6,0.000503,0.000466,-0.001426,0.000284,  12.449
   503.8,0.000508,0.000466,-0.001399,0.000297,  12.446
   504.0,0.000511,0.000460,-0.001372,0.000284,  12.450
   504.2,0.000503,0.000460,-0.001362,0.000284,  12.450
   504.4,0.000503,0.000457,-0.001397,0.000284,  12.448
   504.6,0.000506,0.000459,-0.001468,0.000270,  12.451
   504.8,0.000503,0.000462,-0.001558,0.000270,  12.452
   505.0,0.000506,0.000465,-0.001593,0.000284,  12.450
   505.2,0.000511,0.000457,-0.001601,0.000284,  12.450
   505.4,0.000503,0.000463,-0.001593,0.000284,  12.446
   505.6,0.000508,0.000466,-0.001637,0.000297,  12.444
   505.8,0.000508,0.000458,-0.001691,0.000284,  12.447
   506.0,0.000508,0.000459,-0.001772,0.000284,  12.448
   506.2,0.000500,0.000462,-0.001939,0.000284,  12.448
   506.4,0.000502,0.000459,-0.002159,0.000270,  12.447
   506.6,0.000502,0.000456,-0.002484,0.000257,  12.447
   506.8,0.000494,0.000462,-0.002492,0.000270,  12.448
   507.0,0.000498,0.000459,-0.002377,0.000270,  12.446
   507.2,0.000498,0.000459,-0.002174,0.000270,  12.450
   507.4,0.000494,0.000464,-0.002120,0.000270,  12.445
   507.6,0.000505,0.000461,-0.002076,0.000233,  12.448
   507.8,0.000505,0.000461,-0.002058,0.000270,  12.447
   508.0,0.000494,0.000464,-0.002051,0.000270,  12.446
   508.2,0.000498,0.000461,-0.002077,0.000233,  12.446
   508.4,0.000495,0.000461,-0.002131,0.000233,  12.447
   508.6,0.000488,0.000459,-0.002211,0.000233,  12.446
   508.8,0.000492,0.000456,-0.002219,0.000195,  12.444
   509.0,0.000495,0.000457,-0.002183,0.000233,  12.446
   509.2,0.000491,0.000461,-0.002129,0.000233,  12.446
   509.4,0.000494,0.000458,-0.002066,0.000195,  12.446
   509.6,0.000497,0.000453,-0.001984,0.000233,  12.443
   509.8,0.000500,0.000461,-0.001852,0.000233,  12.443
   510.0,0.000494,0.000455,-0.001869,0.000195,  12.445
   510.2,0.000494,0.000458,-0.001967,0.000233,  12.445
   510.4,0.000497,0.000455,-0.002136,0.000233,  12.443
   510.6,0.000494,0.000455,-0.002153,0.000195,  12.441
   510.8,0.000494,0.000451,-0.002126,0.000233,  12.442
   511.0,0.000490,0.000444,-0.002072,0.000233,  12.440
   511.2,0.000487,0.000444,-0.002027,0.000195,  12.444
   511.4,0.000487,0.000438,-0.001965,0.000233,  12.442
   511.6,0.000482,0.000440,-0.001894,0.000233,  12.447
   511.8,0.000490,0.000444,-0.002052,0.000233,  12.444
   512.0,0.000490,0.000438,-0.002299,0.000270,  12.443
   512.2,0.000482,0.000438,-0.002679,0.000270,  12.443
   512.4,0.000490,0.000441,-0.002731,0.000270,  12.443
   512.6,0.000490,0.000436,-0.002677,0.000270,  12.442
   512.8,0.000479,0.000436,-0.002510,0.000270,  12.439
   513.0,0.000484,0.000441,-0.002430,0.000270,  12.443
   513.2,0.000484,0.000433,-0.002332,0.000270,  12.441
   513.4,0.000479,0.000439,-0.002209,0.000270,  12.441
   513.6,0.000487,0.000447,-0.002157,0.000270,  12.437
   513.8,0.000490,0.000444,-0.002175,0.000270,  12.440
   514.0,0.000496,0.000452,-0.002236,0.000270,  12.440
   514.2,0.000499,0.000462,-0.002192,0.000297,  12.440
   514.4,0.000502,0.000464,-0.002156,0.000311,  12.441
   514.6,0.000511,0.000474,-0.002135,0.000324,  12.441
   514.8,0.000510,0.000479,-0.002160,0.000300,  12.439
   515.0,0.000527,0.000481,-0.002214,0.000300,  12.438
   515.2,0.000536,0.000490,-0.002329,0.000300,  12.436
   515.4,0.000542,0.000500,-0.002391,0.000313,  12.440
   515.6,0.000553,0.000502,-0.002454,0.000313,  12.437
   515.8,0.000559,0.000506,-0.002534,0.000313,  12.441
   516.0,0.000565,0.000517,-0.002534,0.000289,  12.437
   516.2,0.000568,0.000517,-0.002490,0.000327,  12.435
   516.4,0.000575,0.000522,-0.002428,0.000327,  12.438
   516.6,0.000581,0.000528,-0.002331,0.000340,  12.438
   516.8,0.000584,0.000528,-0.002321,0.000302,  12.436
   517.0,0.000590,0.000532,-0.002312,0.000327,  12.436
   517.2,0.000596,0.000537,-0.002312,0.000340,  12.435
   517.4,0.000596,0.000538,-0.002268,0.000302,  12.433
   517.6,0.000603,0.000541,-0.002214,0.000340,  12.436
   517.8,0.000606,0.000541,-0.002126,0.000340,  12.433
   518.0,0.000606,0.000540,-0.002099,0.000302,  12.434
   518.2,0.000609,0.000547,-0.002099,0.000340,  12.432
   518.4,0.000612,0.000549,-0.002091,0.000340,  12.434
   518.6,0.000609,0.000552,-0.002064,0.000302,  12.433
   518.8,0.000609,0.000551,-0.002030,0.000340,  12.433
   519.0,0.000609,0.000546,-0.001995,0.000340,  12.435
   519.2,0.000609,0.000546,-0.002014,0.000302,  12.438
   519.4,0.000609,0.000546,-0.002094,0.000340,  12.433
   519.6,0.000609,0.000546,-0.002236,0.000340,  12.433
   519.8,0.000609,0.000547,-0.002236,0.000302,  12.438
   520.0,0.000609,0.000541,-0.002209,0.000340,  12.434
   520.2,0.000609,0.000545,-0.002148,0.000340,  12.436
   520.4,0.000609,0.000552,-0.002085,0.000302,  12.437
   520.6,0.000609,0.000552,-0.002004,0.000340,  12.435
   520.8,0.000609,0.000549,-0.001916,0.000340,  12.437
   521.0,0.000609,0.000553,-0.001872,0.000340,  12.437
   521.2,0.000609,0.000550,-0.001855,0.000364,  12.441
   521.4,0.000609,0.000553,-0.001864,0.000378,  12.443
   521.6,0.000609,0.000554,-0.001856,0.000378,  12.442
   521.8,0.000609,0.000546,-0.001883,0.000364,  12.440
   522.0,0.000609,0.000546,-0.001910,0.000378,  12.437
   522.2,0.000609,0.000546,-0.001919,0.000378,  12.443
   522.4,0.000606,0.000541,-0.001938,0.000378,  12.442
   522.6,0.000609,0.000543,-0.001965,0.000378,  12.444
   522.8,0.000609,0.000553,-0.001975,0.000378,  12.442
   523.0,0.000606,0.000548,-0.002001,0.000378,  12.443
   523.2,0.000606,0.000546,-0.002011,0.000378,  12.442
   523.4,0.000609,0.000544,-0.002047,0.000378,  12.443
   523.6,0.000613,0.000538,-0.002084,0.000378,  12.445
   523.8,0.000610,0.000536,-0.002155,0.000364,  12.440
   524.0,0.000603,0.000539,-0.002128,0.000378,  12.442
   524.2,0.000596,0.000531,-0.002084,0.000364,  12.442
   524.4,0.000598,0.000535,-0.001987,0.000364,  12.444
   524.6,0.000596,0.000537,-0.001934,0.000364,  12.440
   524.8,0.000598,0.000529,-0.001853,0.000313,  12.441
   525.0,0.000591,0.000524,-0.001765,0.000351,  12.442
   525.2,0.000585,0.000521,-0.001667,0.000364,  12.442
   525.4,0.000574,0.000514,-0.001658,0.000351,  12.440
   525.6,0.000564,0.000506,-0.001667,0.000337,  12.444
   525.8,0.000550,0.000501,-0.001686,0.000351,  12.445
   526.0,0.000548,0.000491,-0.001703,0.000337,  12.445
   526.2,0.000545,0.000489,-0.001713,0.000324,  12.446
   526.4,0.000531,0.000493,-0.001749,0.000324,  12.448
   526.6,0.000525,0.000487,-0.001722,0.000324,  12.449
   526.8,0.000522,0.000487,-0.001686,0.000311,  12.446
   527.0,0.000519,0.000490,-0.001607,0.000311,  12.450
   527.2,0.000523,0.000490,-0.001624,0.000324,  12.447
   527.4,0.000520,0.000487,-0.001669,0.000311,  12.447
   527.6,0.000510,0.000487,-0.001749,0.000311,  12.447
   527.8,0.000517,0.000487,-0.001705,0.000324,  12.448
   528.0,0.000517,0.000485,-0.001651,0.000311,  12.445
   528.2,0.000508,0.000480,-0.001580,0.000311,  12.452
   528.4,0.000506,0.000473,-0.001571,0.000311,  12.448
   528.6,0.000503,0.000467,-0.001563,0.000297,  12.453
   528.8,0.000495,0.000467,-0.001615,0.000297,  12.447
   529.0,0.000495,0.000465,-0.001623,0.000297,  12.452
   529.2,0.000495,0.000457,-0.001588,0.000284,  12.451
   529.4,0.000488,0.000455,-0.001561,0.000284,  12.450
   529.6,0.000491,0.000455,-0.001561,0.000297,  12.449
   529.8,0.000494,0.000444,-0.001596,0.000284,  12.450
   530.0,0.000494,0.000444,-0.001683,0.000284,  12.451
   530.2,0.000491,0.000447,-0.001727,0.000297,  12.452
   530.4,0.000491,0.000449,-0.001798,0.000284,  12.453
   530.6,0.000494,0.000447,-0.001871,0.000270,  12.449
   530.8,0.000491,0.000448,-0.001869,0.000270,  12.451
   531.0,0.000491,0.000453,-0.001806,0.000257,  12.452
   531.2,0.000491,0.000459,-0.001725,0.000244,  12.450
   531.4,0.000491,0.000454,-0.001752,0.000244,  12.451
   531.6,0.000491,0.000446,-0.001831,0.000257,  12.452
   531.8,0.000491,0.000455,-0.001956,0.000270,  12.449
   532.0,0.000494,0.000455,-0.001973,0.000284,  12.450
   532.2,0.000494,0.000452,-0.001964,0.000284,  12.448
   532.4,0.000494,0.000455,-0.001945,0.000297,  12.445
   532.6,0.000490,0.000456,-0.001908,0.000297,  12.449
   532.8,0.000490,0.000455,-0.001881,0.000297,  12.450
   533.0,0.000490,0.000458,-0.001837,0.000297,  12.449
   533.2,0.000485,0.000458,-0.001855,0.000297,  12.447
   533.4,0.000493,0.000455,-0.001951,0.000260,  12.446
   533.6,0.000493,0.000461,-0.002058,0.000284,  12.447
   533.8,0.000485,0.000467,-0.002075,0.000284,  12.446
   534.0,0.000490,0.000464,-0.002066,0.000297,  12.443
   534.2,0.000490,0.000464,-0.002004,0.000284,  12.446
   534.4,0.000490,0.000466,-0.001951,0.000284,  12.446
   534.6,0.000494,0.000463,-0.002003,0.000297,  12.447
   534.8,0.000494,0.000461,-0.002066,0.000284,  12.447
   535.0,0.000497,0.000461,-0.002181,0.000284,  12.444
   535.2,0.000494,0.000458,-0.002217,0.000297,  12.447
   535.4,0.000494,0.000461,-0.002261,0.000284,  12.444
   535.6,0.000493,0.000459,-0.002323,0.000284,  12.443
   535.8,0.000493,0.000459,-0.002260,0.000297,  12.443
   536.0,0.000493,0.000455,-0.002101,0.000284,  12.441
   536.2,0.000489,0.000458,-0.001913,0.000284,  12.439
   536.4,0.000493,0.000458,-0.001955,0.000297,  12.445
   536.6,0.000493,0.000460,-0.002045,0.000284,  12.441
   536.8,0.000490,0.000460,-0.002241,0.000284,  12.446
   537.0,0.000491,0.000455,-0.002312,0.000260,  12.444
   537.2,0.000491,0.000455,-0.002383,0.000260,  12.440
   537.4,0.000497,0.000450,-0.002444,0.000260,  12.444
   537.6,0.000500,0.000451,-0.002498,0.000222,  12.437
   537.8,0.000500,0.000448,-0.002586,0.000246,  12.443
   538.0,0.000503,0.000448,-0.002666,0.000246,  12.442
   538.2,0.000500,0.000455,-0.002630,0.000222,  12.441
   538.4,0.000500,0.000455,-0.002557,0.000260,  12.440
   538.6,0.000503,0.000455,-0.002398,0.000260,  12.441
   538.8,0.000500,0.000457,-0.002408,0.000222,  12.444
   539.0,0.000500,0.000457,-0.002523,0.000260,  12.441
   539.2,0.000500,0.000458,-0.002674,0.000260,  12.439
   539.4,0.000503,0.000462,-0.002630,0.000222,  12.441
   539.6,0.000500,0.000459,-0.002540,0.000222,  12.443
   539.8,0.000500,0.000458,-0.002372,0.000222,  12.441
   540.0,0.000503,0.000467,-0.002372,0.000222,  12.440
   540.2,0.000503,0.000467,-0.002408,0.000260,  12.436
   540.4,0.000510,0.000471,-0.002480,0.000273,  12.436
   540.6,0.000516,0.000479,-0.002559,0.000249,  12.439
   540.8,0.000525,0.000478,-0.002674,0.000300,  12.441
   541.0,0.000534,0.000485,-0.002814,0.000300,  12.440
   541.2,0.000544,0.000495,-0.002805,0.000313,  12.442
   541.4,0.000550,0.000496,-0.002768,0.000313,  12.438
   541.6,0.000559,0.000503,-0.002688,0.000327,  12.442
   541.8,0.000572,0.000514,-0.002671,0.000302,  12.443
   542.0,0.000581,0.000521,-0.002679,0.000340,  12.441
   542.2,0.000587,0.000523,-0.002671,0.000340,  12.442
   542.4,0.000590,0.000532,-0.002723,0.000353,  12.443
   542.6,0.000593,0.000542,-0.002748,0.000316,  12.446
   542.8,0.000599,0.000547,-0.002749,0.000353,  12.442
   543.0,0.000603,0.000550,-0.002776,0.000367,  12.442
   543.2,0.000609,0.000553,-0.002731,0.000343,  12.445
   543.4,0.000612,0.000552,-0.002625,0.000367,  12.447
   543.6,0.000615,0.000551,-0.002501,0.000367,  12.447
   543.8,0.000612,0.000546,-0.002474,0.000380,  12.444
   544.0,0.000615,0.000540,-0.002483,0.000404,  12.447
   544.2,0.000607,0.000549,-0.002554,0.000404,  12.446
   544.4,0.000607,0.000549,-0.002564,0.000418,  12.445
   544.6,0.000611,0.000543,-0.002573,0.000404,  12.443
   544.8,0.000603,0.000543,-0.002575,0.000404,  12.450
   545.0,0.000614,0.000549,-0.002521,0.000380,  12.448
   545.2,0.000617,0.000543,-0.002433,0.000367,  12.445
   545.4,0.000606,0.000551,-0.002335,0.000367,  12.449
   545.6,0.000614,0.000559,-0.002353,0.000343,  12.449
   545.8,0.000617,0.000565,-0.002416,0.000367,  12.449
   546.0,0.000606,0.000565,-0.002515,0.000367,  12.450
   546.2,0.000611,0.000564,-0.002471,0.000343,  12.448
   546.4,0.000614,0.000564,-0.002409,0.000367,  12.451
   546.6,0.000606,0.000564,-0.002277,0.000367,  12.449
   546.8,0.000611,0.000563,-0.002216,0.000343,  12.452
   547.0,0.000614,0.000560,-0.002198,0.000367,  12.458
   547.2,0.000606,0.000557,-0.002190,0.000367,  12.454
   547.4,0.000611,0.000561,-0.002217,0.000343,  12.450
   547.6,0.000611,0.000557,-0.002254,0.000367,  12.455
   547.8,0.000614,0.000557,-0.002342,0.000367,  12.456
   548.0,0.000614,0.000563,-0.002369,0.000343,  12.456
   548.2,0.000614,0.000560,-0.002395,0.000367,  12.450
   548.4,0.000614,0.000560,-0.002405,0.000367,  12.455
   548.6,0.000603,0.000560,-0.002378,0.000343,  12.457
   548.8,0.000607,0.000559,-0.002334,0.000367,  12.461
   549.0,0.000607,0.000556,-0.002273,0.000367,  12.458
   549.2,0.000597,0.000556,-0.002246,0.000329,  12.460
   549.4,0.000601,0.000556,-0.002211,0.000353,  12.458
   549.6,0.000594,0.000554,-0.002176,0.000353,  12.459
   549.8,0.000594,0.000555,-0.002113,0.000316,  12.458
   550.0,0.000594,0.000558,-0.002025,0.000353,  12.463
   550.2,0.000583,0.000553,-0.001902,0.000353,  12.462
   550.4,0.000588,0.000543,-0.001848,0.000353,  12.463
   550.6,0.000581,0.000538,-0.001804,0.000353,  12.462
   550.8,0.000578,0.000538,-0.001796,0.000353,  12.462
   551.0,0.000575,0.000538,-0.001788,0.000316,  12.464
   551.2,0.000577,0.000527,-0.001806,0.000340,  12.465
   551.4,0.000573,0.000523,-0.001825,0.000340,  12.468
   551.6,0.000560,0.000518,-0.001896,0.000327,  12.468
   551.8,0.000558,0.000514,-0.001852,0.000276,  12.467
   552.0,0.000544,0.000511,-0.001815,0.000313,  12.468
   552.2,0.000535,0.000509,-0.001736,0.000327,  12.470
   552.4,0.000529,0.000504,-0.001754,0.000276,  12.464
   552.6,0.000518,0.000497,-0.001790,0.000313,  12.467
   552.8,0.000523,0.000492,-0.001896,0.000327,  12.469
   553.0,0.000520,0.000487,-0.001913,0.000262,  12.467
   553.2,0.000512,0.000480,-0.001896,0.000286,  12.467
   553.4,0.000513,0.000483,-0.001861,0.000300,  12.470
   553.6,0.000504,0.000480,-0.001853,0.000249,  12.468
   553.8,0.000501,0.000470,-0.001880,0.000286,  12.469
   554.0,0.000501,0.000473,-0.001934,0.000286,  12.469
   554.2,0.000508,0.000468,-0.001897,0.000249,  12.470
   554.4,0.000505,0.000468,-0.001809,0.000273,  12.465
   554.6,0.000499,0.000463,-0.001694,0.000273,  12.469
   554.8,0.000503,0.000463,-0.001702,0.000235,  12.469
   555.0,0.000503,0.000465,-0.001755,0.000260,  12.468
   555.2,0.000496,0.000463,-0.001863,0.000260,  12.472
   555.4,0.000493,0.000464,-0.001995,0.000222,  12.472
   555.6,0.000496,0.000469,-0.002180,0.000246,  12.474
   555.8,0.000489,0.000472,-0.002400,0.000246,  12.468
   556.0,0.000496,0.000471,-0.002462,0.000222,  12.471
   556.2,0.000496,0.000471,-0.002427,0.000246,  12.466
   556.4,0.000485,0.000473,-0.002348,0.000246,  12.471
   556.6,0.000487,0.000462,-0.002312,0.000222,  12.473
   556.8,0.000484,0.000459,-0.002241,0.000246,  12.467
   557.0,0.000487,0.000457,-0.002162,0.000246,  12.474
   557.2,0.000484,0.000458,-0.002109,0.000222,  12.468
   557.4,0.000484,0.000449,-0.002072,0.000246,  12.474
   557.6,0.000484,0.000452,-0.002028,0.000246,  12.470
   557.8,0.000476,0.000456,-0.002055,0.000222,  12.473
   558.0,0.000484,0.000453,-0.002134,0.000246,  12.472
   558.2,0.000480,0.000453,-0.002249,0.000246,  12.473
   558.4,0.000480,0.000456,-0.002284,0.000222,  12.473
   558.6,0.000488,0.000459,-0.002301,0.000246,  12.475
   558.8,0.000485,0.000452,-0.002310,0.000246,  12.473
   559.0,0.000485,0.000445,-0.002257,0.000222,  12.473
   559.2,0.000488,0.000449,-0.002184,0.000246,  12.472
   559.4,0.000488,0.000450,-0.002077,0.000233,  12.472
   559.6,0.000485,0.000450,-0.002023,0.000246,  12.472
   559.8,0.000482,0.000446,-0.002006,0.000233,  12.471
   560.0,0.000485,0.000448,-0.002033,0.000233,  12.470
   560.2,0.000482,0.000447,-0.002068,0.000195,  12.474
   560.4,0.000482,0.000444,-0.002129,0.000233,  12.470
   560.6,0.000485,0.000451,-0.002208,0.000233,  12.473
   560.8,0.000477,0.000451,-0.002306,0.000233,  12.475
   561.0,0.000477,0.000446,-0.002313,0.000195,  12.473
   561.2,0.000473,0.000451,-0.002304,0.000233,  12.475
   561.4,0.000473,0.000449,-0.002250,0.000233,  12.472
   561.6,0.000473,0.000444,-0.002716,0.000195,  12.476
   561.8,0.000466,0.000446,-0.003429,0.000233,  12.476
   562.0,0.000473,0.000446,-0.004360,0.000233,  12.474
   562.2,0.000470,0.000440,-0.004351,0.000195,  12.476
   562.4,0.000469,0.000443,-0.004017,0.000233,  12.474
   562.6,0.000476,0.000448,-0.003349,0.000233,  12.473
   562.8,0.000476,0.000448,-0.003155,0.000195,  12.473
   563.0,0.000472,0.000451,-0.003085,0.000233,  12.477
   563.2,0.000479,0.000453,-0.003094,0.000233,  12.474
   563.4,0.000476,0.000453,-0.002962,0.000233,  12.478
   563.6,0.000466,0.000453,-0.002847,0.000270,  12.476
   563.8,0.000473,0.000459,-0.002705,0.000270,  12.479
   564.0,0.000470,0.000454,-0.002661,0.000270,  12.481
   564.2,0.000463,0.000448,-0.002671,0.000270,  12.479
   564.4,0.000467,0.000449,-0.002716,0.000270,  12.478
   564.6,0.000467,0.000448,-0.002672,0.000270,  12.477
   564.8,0.000463,0.000443,-0.002636,0.000270,  12.479
   565.0,0.000467,0.000435,-0.002565,0.000270,  12.479
   565.2,0.000464,0.000439,-0.002539,0.000284,  12.482
   565.4,0.000459,0.000439,-0.002529,0.000284,  12.476
   565.6,0.000459,0.000434,-0.002529,0.000284,  12.481
   565.8,0.000456,0.000440,-0.002493,0.000297,  12.481
   566.0,0.000459,0.000442,-0.002474,0.000284,  12.480
   566.2,0.000459,0.000440,-0.002439,0.000284,  12.483
   566.4,0.000452,0.000440,-0.002633,0.000260,  12.479
   566.6,0.000459,0.000444,-0.002968,0.000246,  12.481
   566.8,0.000458,0.000446,-0.003435,0.000246,  12.485
   567.0,0.000464,0.000453,-0.003469,0.000222,  12.483
   567.2,0.000475,0.000464,-0.003363,0.000260,  12.485
   567.4,0.000477,0.000468,-0.003116,0.000273,  12.484
   567.6,0.000489,0.000474,-0.003089,0.000249,  12.484
   567.8,0.000506,0.000487,-0.003097,0.000300,  12.486
   568.0,0.000515,0.000491,-0.003150,0.000300,  12.484
   568.2,0.000521,0.000493,-0.003160,0.000313,  12.483
   568.4,0.000539,0.000497,-0.003177,0.000313,  12.483
   568.6,0.000546,0.000502,-0.003221,0.000327,  12.486
   568.8,0.000544,0.000509,-0.003204,0.000302,  12.486
   569.0,0.000558,0.000511,-0.003194,0.000327,  12.484
   569.2,0.000564,0.000510,-0.003143,0.000327,  12.488
   569.4,0.000560,0.000518,-0.003116,0.000340,  12.487
   569.6,0.000573,0.000525,-0.003106,0.000302,  12.489
   569.8,0.000572,0.000519,-0.003089,0.000340,  12.493
   570.0,0.000575,0.000521,-0.003072,0.000340,  12.492
   570.2,0.000575,0.000523,-0.003011,0.000302,  12.494
   570.4,0.000571,0.000529,-0.002957,0.000340,  12.497
   570.6,0.000581,0.000538,-0.002869,0.000353,  12.494
   570.8,0.000585,0.000538,-0.002825,0.000316,  12.496
   571.0,0.000577,0.000540,-0.002825,0.000353,  12.498
   571.2,0.000585,0.000542,-0.002852,0.000367,  12.496
   571.4,0.000585,0.000542,-0.002771,0.000329,  12.497
   571.6,0.000577,0.000539,-0.002666,0.000353,  12.499
   571.8,0.000585,0.000542,-0.002534,0.000353,  12.499
   572.0,0.000585,0.000544,-0.002471,0.000316,  12.496
   572.2,0.000577,0.000539,-0.002401,0.000353,  12.499
   572.4,0.000577,0.000542,-0.002367,0.000353,  12.502
   572.6,0.000577,0.000537,-0.002357,0.000316,  12.506
   572.8,0.000570,0.000537,-0.002340,0.000353,  12.502
   573.0,0.000570,0.000534,-0.002349,0.000353,  12.503
   573.2,0.000577,0.000534,-0.002386,0.000316,  12.506
   573.4,0.000573,0.000534,-0.002457,0.000353,  12.501
   573.6,0.000573,0.000534,-0.002554,0.000353,  12.507
   573.8,0.000580,0.000529,-0.002564,0.000316,  12.505
   574.0,0.000576,0.000529,-0.002564,0.000353,  12.508
   574.2,0.000583,0.000531,-0.002529,0.000353,  12.504
   574.4,0.000588,0.000534,-0.002450,0.000316,  12.506
   574.6,0.000588,0.000534,-0.002397,0.000353,  12.509
   574.8,0.000588,0.000531,-0.002308,0.000353,  12.510
   575.0,0.000589,0.000529,-0.002291,0.000316,  12.510
   575.2,0.000586,0.000529,-0.002327,0.000353,  12.508
   575.4,0.000586,0.000531,-0.002416,0.000353,  12.511
   575.6,0.000581,0.000537,-0.002408,0.000316,  12.511
   575.8,0.000586,0.000539,-0.002417,0.000353,  12.512
   576.0,0.000589,0.000534,-0.002409,0.000353,  12.513
   576.2,0.000578,0.000542,-0.002392,0.000353,  12.512
   576.4,0.000586,0.000545,-0.002375,0.000391,  12.514
   576.6,0.000578,0.000538,-0.002348,0.000378,  12.512
   576.8,0.000572,0.000541,-0.002480,0.000378,  12.513
   577.0,0.000566,0.000539,-0.002674,0.000378,  12.514
   577.2,0.000555,0.000534,-0.002940,0.000364,  12.515
   577.4,0.000560,0.000526,-0.002905,0.000364,  12.516
   577.6,0.000557,0.000524,-0.002773,0.000364,  12.521
   577.8,0.000543,0.000519,-0.002553,0.000351,  12.514
   578.0,0.000547,0.000520,-0.002474,0.000337,  12.515
   578.2,0.000541,0.000510,-0.002413,0.000300,  12.518
   578.4,0.000531,0.000502,-0.002369,0.000337,  12.520
   578.6,0.000532,0.000503,-0.002369,0.000351,  12.519
   578.8,0.000520,0.000493,-0.002342,0.000300,  12.518
   579.0,0.000506,0.000488,-0.002334,0.000286,  12.523
   579.2,0.000507,0.000487,-0.002343,0.000300,  12.521
   579.4,0.000501,0.000476,-0.002273,0.000249,  12.521
   579.6,0.000498,0.000471,-0.002192,0.000286,  12.524
   579.8,0.000492,0.000467,-0.002060,0.000286,  12.522
   580.0,0.000496,0.000459,-0.001989,0.000249,  12.526
   580.2,0.000493,0.000457,-0.001935,0.000273,  12.524
   580.4,0.000479,0.000457,-0.001883,0.000273,  12.527
   580.6,0.000480,0.000455,-0.001900,0.000235,  12.526
   580.8,0.000470,0.000452,-0.001989,0.000260,  12.530
   581.0,0.000470,0.000453,-0.002113,0.000260,  12.521
   581.2,0.000473,0.000454,-0.002131,0.000222,  12.526
   581.4,0.000466,0.000451,-0.002164,0.000260,  12.531
   581.6,0.000473,0.000449,-0.002129,0.000260,  12.532
   581.8,0.000470,0.000449,-0.002482,0.000222,  12.532
   582.0,0.000466,0.000441,-0.003036,0.000246,  12.531
   582.2,0.000470,0.000447,-0.003766,0.000246,  12.531
   582.4,0.000464,0.000447,-0.003783,0.000222,  12.532
   582.6,0.000459,0.000442,-0.003537,0.000246,  12.532
   582.8,0.000464,0.000439,-0.003053,0.000246,  12.534
   583.0,0.000461,0.000439,-0.002894,0.000222,  12.537
   583.2,0.000456,0.000439,-0.002787,0.000246,  12.536
   583.4,0.000464,0.000441,-0.002716,0.000246,  12.538
   583.6,0.000464,0.000446,-0.002646,0.000222,  12.538
   583.8,0.000459,0.000443,-0.002584,0.000246,  12.536
   584.0,0.000467,0.000443,-0.002567,0.000246,  12.535
   584.2,0.000464,0.000444,-0.002716,0.000209,  12.537
   584.4,0.000464,0.000440,-0.002946,0.000195,  12.536
   584.6,0.000464,0.000443,-0.003289,0.000195,  12.537
   584.8,0.000461,0.000445,-0.003342,0.000195,  12.538
   585.0,0.000458,0.000445,-0.003325,0.000195,  12.536
   585.2,0.000453,0.000440,-0.003202,0.000195,  12.541
   585.4,0.000454,0.000441,-0.003650,0.000195,  12.541
   585.6,0.000451,0.000432,-0.004351,0.000195,  12.537
   585.8,0.000444,0.000435,-0.005286,0.000195,  12.540
   586.0,0.000447,0.000440,-0.005294,0.000195,  12.537
   586.2,0.000447,0.000437,-0.004953,0.000195,  12.543
   586.4,0.000440,0.000434,-0.004254,0.000195,  12.542
   586.6,0.000440,0.000440,-0.003973,0.000195,  12.543
   586.8,0.000444,0.000443,-0.003788,0.000171,  12.541
   587.0,0.000441,0.000438,-0.003630,0.000195,  12.542
   587.2,0.000445,0.000433,-0.003471,0.000195,  12.545
   587.4,0.000458,0.000436,-0.003330,0.000182,  12.540
   587.6,0.000458,0.000432,-0.003249,0.000244,  12.542
   587.8,0.000451,0.000429,-0.003179,0.000244,  12.543
   588.0,0.000451,0.000424,-0.003081,0.000244,  12.547
   588.2,0.000457,0.000427,-0.002985,0.000257,  12.545
   588.4,0.000453,0.000430,-0.002915,0.000270,  12.544
   588.6,0.000456,0.000424,-0.002842,0.000270,  12.536
   588.8,0.000459,0.000427,-0.002737,0.000270,  12.547
   589.0,0.000454,0.000427,-0.002639,0.000284,  12.546
   589.2,0.000462,0.000427,-0.002603,0.000246,  12.539
   589.4,0.000459,0.000421,-0.002586,0.000233,  12.539
   589.6,0.000448,0.000427,-0.002603,0.000233,  12.543
   589.8,0.000453,0.000427,-0.002620,0.000195,  12.543
   590.0,0.000450,0.000430,-0.002682,0.000233,  12.540
   590.2,0.000442,0.000434,-0.002752,0.000219,  12.543
   590.4,0.000453,0.000430,-0.002743,0.000206,  12.542
   590.6,0.000453,0.000427,-0.002724,0.000230,  12.543
   590.8,0.000445,0.000426,-0.002663,0.000230,  12.542
   591.0,0.000453,0.000435,-0.002671,0.000230,  12.544
   591.2,0.000456,0.000432,-0.002688,0.000244,  12.548
   591.4,0.000451,0.000432,-0.002732,0.000257,  12.546
   591.6,0.000462,0.000435,-0.002740,0.000257,  12.547
   591.8,0.000465,0.000432,-0.002767,0.000257,  12.546
   592.0,0.000458,0.000435,-0.002776,0.000257,  12.548
   592.2,0.000459,0.000439,-0.002793,0.000257,  12.549
   592.4,0.000459,0.000439,-0.002847,0.000257,  12.547
   592.6,0.000459,0.000441,-0.002892,0.000257,  12.546
   592.8,0.000462,0.000444,-0.002919,0.000257,  12.546
   593.0,0.000462,0.000445,-0.002963,0.000257,  12.547
   593.2,0.000471,0.000452,-0.002999,0.000270,  12.547
   593.4,0.000473,0.000457,-0.003034,0.000297,  12.547
   593.6,0.000493,0.000461,-0.003078,0.000311,  12.549
   593.8,0.000505,0.000470,-0.003155,0.000337,  12.555
   594.0,0.000510,0.000484,-0.003146,0.000351,  12.548
   594.2,0.000527,0.000489,-0.003128,0.000351,  12.549
   594.4,0.000539,0.000489,-0.003102,0.000364,  12.552
   594.6,0.000541,0.000501,-0.003278,0.000364,  12.551
   594.8,0.000555,0.000502,-0.003551,0.000364,  12.554
   595.0,0.000564,0.000510,-0.003946,0.000364,  12.554
   595.2,0.000563,0.000511,-0.003954,0.000364,  12.554
   595.4,0.000570,0.000513,-0.003815,0.000364,  12.557
   595.6,0.000573,0.000513,-0.003534,0.000364,  12.552
   595.8,0.000572,0.000516,-0.003429,0.000378,  12.558
   596.0,0.000577,0.000522,-0.003341,0.000340,  12.556
   596.2,0.000580,0.000525,-0.003304,0.000378,  12.554
   596.4,0.000575,0.000531,-0.003253,0.000378,  12.559
   596.6,0.000586,0.000536,-0.003183,0.000378,  12.558
   596.8,0.000581,0.000533,-0.003174,0.000378,  12.558
   597.0,0.000581,0.000531,-0.003149,0.000391,  12.560
   597.2,0.000581,0.000530,-0.003114,0.000391,  12.561
   597.4,0.000577,0.000533,-0.003105,0.000391,  12.563
   597.6,0.000585,0.000535,-0.003080,0.000404,  12.563
   597.8,0.000581,0.000538,-0.003036,0.000404,  12.564
   598.0,0.000577,0.000534,-0.002965,0.000391,  12.567
   598.2,0.000585,0.000537,-0.002886,0.000391,  12.569
   598.4,0.000585,0.000539,-0.002886,0.000391,  12.567
   598.6,0.000577,0.000534,-0.002913,0.000391,  12.569
   598.8,0.000585,0.000534,-0.003011,0.000391,  12.571
   599.0,0.000585,0.000535,-0.003018,0.000391,  12.569
   599.2,0.000577,0.000533,-0.002984,0.000391,  12.571
   599.4,0.000585,0.000533,-0.002932,0.000391,  12.572
   599.6,0.000585,0.000535,-0.002888,0.000391,  12.572
   599.8,0.000577,0.000535,-0.002809,0.000391,  12.577
   600.0,0.000585,0.000535,-0.002738,0.000391,  12.574
   600.2,0.000585,0.000535,-0.002731,0.000391,  12.576
   600.4,0.000577,0.000541,-0.002757,0.000391,  12.575
   600.6,0.000585,0.000538,-0.002855,0.000391,  12.575
   600.8,0.000585,0.000541,-0.002801,0.000391,  12.580
   601.0,0.000577,0.000541,-0.002704,0.000391,  12.581
   601.2,0.000585,0.000541,-0.002564,0.000378,  12.581
   601.4,0.000585,0.000538,-0.002493,0.000378,  12.578
   601.6,0.000585,0.000540,-0.002439,0.000378,  12.583
   601.8,0.000588,0.000542,-0.002387,0.000364,  12.582
   602.0,0.000588,0.000546,-0.002334,0.000364,  12.584
   602.2,0.000588,0.000549,-0.002272,0.000378,  12.582
   602.4,0.000591,0.000549,-0.002211,0.000378,  12.585
   602.6,0.000588,0.000538,-0.002441,0.000378,  12.588
   602.8,0.000592,0.000535,-0.002847,0.000378,  12.590
   603.0,0.000581,0.000530,-0.003411,0.000378,  12.592
   603.2,0.000578,0.000532,-0.003465,0.000378,  12.590
   603.4,0.000578,0.000530,-0.003334,0.000378,  12.592
   603.6,0.000578,0.000527,-0.003028,0.000364,  12.591
   603.8,0.000572,0.000529,-0.002923,0.000378,  12.591
   604.0,0.000570,0.000526,-0.002835,0.000364,  12.597
   604.2,0.000564,0.000524,-0.002739,0.000351,  12.591
   604.4,0.000550,0.000516,-0.002650,0.000300,  12.594
   604.6,0.000546,0.000509,-0.002562,0.000300,  12.597
   604.8,0.000539,0.000499,-0.002482,0.000300,  12.597
   605.0,0.000526,0.000491,-0.002386,0.000300,  12.596
   605.2,0.000527,0.000491,-0.002536,0.000300,  12.596
   605.4,0.000516,0.000487,-0.002783,0.000311,  12.595
   605.6,0.000510,0.000479,-0.003127,0.000311,  12.598
   605.8,0.000504,0.000476,-0.003171,0.000311,  12.597
   606.0,0.000493,0.000471,-0.003119,0.000297,  12.600
   606.2,0.000498,0.000472,-0.002962,0.000297,  12.599
   606.4,0.000495,0.000470,-0.002882,0.000297,  12.601
   606.6,0.000484,0.000470,-0.002769,0.000297,  12.603
   606.8,0.000489,0.000465,-0.002654,0.000297,  12.603
   607.0,0.000485,0.000463,-0.002583,0.000297,  12.604
   607.2,0.000475,0.000460,-0.002539,0.000297,  12.601
   607.4,0.000479,0.000460,-0.002529,0.000297,  12.601
   607.6,0.000473,0.000452,-0.002458,0.000297,  12.604
   607.8,0.000463,0.000450,-0.002378,0.000284,  12.603
   608.0,0.000467,0.000445,-0.002288,0.000284,  12.609
   608.2,0.000464,0.000440,-0.002605,0.000284,  12.607
   608.4,0.000456,0.000438,-0.003116,0.000270,  12.608
   608.6,0.000464,0.000441,-0.003829,0.000270,  12.612
   608.8,0.000458,0.000447,-0.003837,0.000284,  12.608
   609.0,0.000450,0.000442,-0.003598,0.000284,  12.609
   609.2,0.000458,0.000442,-0.003097,0.000284,  12.612
   609.4,0.000451,0.000442,-0.002930,0.000297,  12.608
   609.6,0.000451,0.000439,-0.002833,0.000284,  12.608
   609.8,0.000451,0.000439,-0.002772,0.000284,  12.609
   610.0,0.000451,0.000436,-0.002639,0.000260,  12.613
   610.2,0.000451,0.000430,-0.002532,0.000246,  12.613
   610.4,0.000444,0.000429,-0.002398,0.000246,  12.615
   610.6,0.000448,0.000432,-0.002362,0.000260,  12.614
   610.8,0.000445,0.000429,-0.002372,0.000284,  12.614
   611.0,0.000438,0.000426,-0.002435,0.000284,  12.614
   611.2,0.000448,0.000430,-0.002471,0.000284,  12.613
   611.4,0.000451,0.000431,-0.002550,0.000270,  12.616
   611.6,0.000447,0.000434,-0.002647,0.000270,  12.617
   611.8,0.000458,0.000432,-0.002647,0.000270,  12.610
   612.0,0.000454,0.000432,-0.002628,0.000270,  12.615
   612.2,0.000447,0.000437,-0.002575,0.000270,  12.613
   612.4,0.000454,0.000433,-0.002583,0.000270,  12.615
   612.6,0.000451,0.000431,-0.002609,0.000270,  12.616
   612.8,0.000451,0.000429,-0.002680,0.000257,  12.617
   613.0,0.000451,0.000431,-0.002663,0.000257,  12.618
   613.2,0.000456,0.000425,-0.002644,0.000219,  12.614
   613.4,0.000456,0.000428,-0.002590,0.000257,  12.615
   613.6,0.000454,0.000435,-0.002537,0.000270,  12.617
   613.8,0.000465,0.000430,-0.002581,0.000233,  12.618
   614.0,0.000461,0.000432,-0.002686,0.000233,  12.618
   614.2,0.000461,0.000438,-0.002803,0.000233,  12.616
   614.4,0.000461,0.000432,-0.002820,0.000233,  12.615
   614.6,0.000453,0.000433,-0.002838,0.000244,  12.617
   614.8,0.000458,0.000432,-0.002811,0.000244,  12.620
   615.0,0.000451,0.000435,-0.002767,0.000206,  12.618
   615.2,0.000444,0.000426,-0.002757,0.000206,  12.618
   615.4,0.000454,0.000437,-0.002721,0.000219,  12.618
   615.6,0.000451,0.000432,-0.002721,0.000182,  12.618
   615.8,0.000448,0.000435,-0.002748,0.000219,  12.619
   616.0,0.000456,0.000438,-0.002801,0.000233,  12.619
   616.2,0.000460,0.000444,-0.002773,0.000195,  12.623
   616.4,0.000460,0.000444,-0.002719,0.000233,  12.620
   616.6,0.000453,0.000444,-0.002656,0.000246,  12.617
   616.8,0.000456,0.000441,-0.002929,0.000209,  12.620
   617.0,0.000451,0.000436,-0.003334,0.000233,  12.620
   617.2,0.000451,0.000436,-0.003942,0.000233,  12.619
   617.4,0.000448,0.000441,-0.003959,0.000195,  12.620
   617.6,0.000441,0.000432,-0.003774,0.000233,  12.621
   617.8,0.000451,0.000432,-0.003388,0.000233,  12.621
   618.0,0.000451,0.000437,-0.003282,0.000195,  12.620
   618.2,0.000451,0.000431,-0.003221,0.000233,  12.615
   618.4,0.000451,0.000423,-0.003221,0.000233,  12.618
   618.6,0.000451,0.000429,-0.003106,0.000209,  12.621
   618.8,0.000451,0.000429,-0.003017,0.000246,  12.623
   619.0,0.000447,0.000429,-0.002892,0.000246,  12.618
   619.2,0.000458,0.000432,-0.002866,0.000222,  12.620
   619.4,0.000464,0.000440,-0.002935,0.000260,  12.621
   619.6,0.000463,0.000445,-0.003025,0.000273,  12.621
   619.8,0.000476,0.000450,-0.003032,0.000235,  12.625
   620.0,0.000482,0.000460,-0.003050,0.000286,  12.624
   620.2,0.000484,0.000465,-0.003040,0.000300,  12.623
   620.4,0.000504,0.000470,-0.003163,0.000262,  12.624
   620.6,0.000513,0.000471,-0.003356,0.000313,  12.622
   620.8,0.000523,0.000484,-0.003595,0.000313,  12.622
   621.0,0.000532,0.000494,-0.003551,0.000313,  12.623
   621.2,0.000546,0.000494,-0.003410,0.000327,  12.623
   621.4,0.000552,0.000502,-0.003154,0.000327,  12.628
   621.6,0.000547,0.000504,-0.003065,0.000302,  12.622
   621.8,0.000555,0.000506,-0.003021,0.000327,  12.624
   622.0,0.000561,0.000510,-0.002977,0.000327,  12.629
   622.2,0.000557,0.000520,-0.003004,0.000340,  12.627
   622.4,0.000567,0.000516,-0.003004,0.000302,  12.629
   622.6,0.000570,0.000518,-0.003031,0.000340,  12.633
   622.8,0.000566,0.000518,-0.003067,0.000340,  12.631
   623.0,0.000570,0.000521,-0.003032,0.000302,  12.630
   623.2,0.000563,0.000521,-0.002988,0.000340,  12.632
   623.4,0.000566,0.000522,-0.002944,0.000340,  12.631
   623.6,0.000563,0.000527,-0.002944,0.000302,  12.634
   623.8,0.000555,0.000527,-0.002962,0.000340,  12.632
