Run Name,Run 2
Run Date,03:19:58 PM   04-06-15
Method Name,18% C group 3 April 8 2014.6
Export Format Version, 1.00
Method ID, 2053
Points/Second, 5.00
Number of Records,   2838
Offset from Run Start Time,00:00:00
Run End Time,00:09:30
Time,Second
QuadTec 1, (280.0 nm), AU
QuadTec 2, (260.0 nm), AU
Gradient Pump,<Not Selected>
QuadTec 3, (214.0 nm), AU
QuadTec 4, (405.0 nm), AU
Conductivity,mS/cm
Trace 6,<Not Available>
GP Pressure,<Not Selected>
Volume,<Not Selected>
Fraction,<Not Available>
Time,QuadTec 1,QuadTec 2,QuadTec 3,QuadTec 4,Conductivity
     0.0,0.000958,0.001093,0.012093,0.000000,  15.173
     0.2,0.000951,0.001093,0.012093,0.000000,  15.172
     0.4,0.000937,0.001093,0.012093,0.000000,  15.171
     0.6,0.000937,0.000801,0.012093,0.000000,  15.169
     0.8,0.000000,0.000801,0.000000,0.000000,  15.170
     1.0,0.000000,0.000000,0.000000,0.000000,  15.167
     1.2,0.000000,0.000000,0.000000,0.000000,  15.166
     1.4,0.000000,0.000000,0.000000,0.000000,  15.164
     1.6,0.000000,0.000000,0.000000,0.000000,  15.168
     1.8,0.000000,0.000000,0.000000,0.000000,  15.163
     2.0,0.000000,0.000000,0.000000,0.000000,  15.167
     2.2,0.000000,0.000000,0.000000,0.000000,  15.159
     2.4,0.000000,0.000000,0.000000,0.000000,  15.162
     2.6,0.000000,0.000000,0.000000,0.000000,  15.160
     2.8,0.000000,0.000000,0.000000,0.000000,  15.162
     3.0,0.000000,0.000000,0.000000,0.000000,  15.160
     3.2,0.000000,0.000000,0.000000,0.000000,  15.159
     3.4,0.000000,0.000000,0.000000,0.000000,  15.158
     3.6,0.000000,0.000000,0.000000,0.000000,  15.159
     3.8,0.000000,0.000000,0.000000,0.000000,  15.154
     4.0,0.000000,0.000000,0.000000,0.000000,  15.153
     4.2,0.000000,0.000000,0.000000,0.000000,  15.152
     4.4,0.000049,0.000000,0.000000,0.000056,  15.151
     4.6,0.000108,0.000099,0.001563,0.000032,  15.153
     4.8,0.000139,0.000117,0.001458,0.000045,  15.152
     5.0,0.000163,0.000133,0.001389,0.000083,  15.151
     5.2,0.000168,0.000149,0.001327,0.000072,  15.148
     5.4,0.000171,0.000162,0.001302,0.000085,  15.149
     5.6,0.000196,0.000181,0.001259,0.000099,  15.151
     5.8,0.000224,0.000201,0.001261,0.000125,  15.150
     6.0,0.000252,0.000221,0.001181,0.000139,  15.149
     6.2,0.000276,0.000248,0.001040,0.000152,  15.148
     6.4,0.000298,0.000272,0.000873,0.000179,  15.144
     6.6,0.000320,0.000296,0.000795,0.000192,  15.147
     6.8,0.000344,0.000319,0.000743,0.000206,  15.147
     7.0,0.000372,0.000344,0.000735,0.000233,  15.146
     7.2,0.000400,0.000369,0.000685,0.000259,  15.148
     7.4,0.000431,0.000400,0.000659,0.000310,  15.146
     7.6,0.000458,0.000428,0.000609,0.000313,  15.147
     7.8,0.000492,0.000463,0.000566,0.000340,  15.145
     8.0,0.000523,0.000497,0.000514,0.000417,  15.146
     8.2,0.000543,0.000520,0.000418,0.000420,  15.145
     8.4,0.000578,0.000548,0.000295,0.000433,  15.143
     8.6,0.000603,0.000575,0.000127,0.000471,  15.142
     8.8,0.000614,0.000595,-0.000085,0.000460,  15.142
     9.0,0.000634,0.000610,-0.000119,0.000474,  15.142
     9.2,0.000650,0.000629,-0.000091,0.000487,  15.145
     9.4,0.000662,0.000645,-0.000009,0.000500,  15.145
     9.6,0.000671,0.000659,-0.000026,0.000500,  15.142
     9.8,0.000677,0.000668,-0.000070,0.000500,  15.146
    10.0,0.000687,0.000669,-0.000176,0.000514,  15.147
    10.2,0.000688,0.000683,-0.000572,0.000514,  15.142
    10.4,0.000705,0.000692,-0.001127,0.000514,  15.144
    10.6,0.000715,0.000694,-0.001849,0.000527,  15.145
    10.8,0.000713,0.000709,-0.001962,0.000527,  15.143
    11.0,0.000721,0.000719,-0.001856,0.000527,  15.143
    11.2,0.000727,0.000712,-0.001514,0.000527,  15.141
    11.4,0.000726,0.000719,-0.001407,0.000540,  15.139
    11.6,0.000733,0.000723,-0.001309,0.000540,  15.141
    11.8,0.000736,0.000720,-0.001212,0.000554,  15.140
    12.0,0.000739,0.000725,-0.001185,0.000567,  15.143
    12.2,0.000754,0.000727,-0.001185,0.000554,  15.141
    12.4,0.000760,0.000731,-0.001246,0.000554,  15.147
    12.6,0.000753,0.000737,-0.001344,0.000554,  15.142
    12.8,0.000753,0.000739,-0.001271,0.000554,  15.148
    13.0,0.000756,0.000739,-0.001164,0.000554,  15.146
    13.2,0.000762,0.000742,-0.001021,0.000554,  15.145
    13.4,0.000762,0.000744,-0.000994,0.000554,  15.145
    13.6,0.000765,0.000744,-0.001046,0.000554,  15.144
    13.8,0.000768,0.000744,-0.001134,0.000554,  15.145
    14.0,0.000768,0.000749,-0.001152,0.000567,  15.147
    14.2,0.000771,0.000754,-0.001186,0.000567,  15.145
    14.4,0.000775,0.000761,-0.001211,0.000567,  15.145
    14.6,0.000775,0.000758,-0.001263,0.000581,  15.146
    14.8,0.000778,0.000762,-0.001325,0.000567,  15.142
    15.0,0.000778,0.000759,-0.001388,0.000567,  15.142
    15.2,0.000778,0.000764,-0.001395,0.000581,  15.143
    15.4,0.000778,0.000758,-0.001386,0.000567,  15.145
    15.6,0.000767,0.000762,-0.001332,0.000567,  15.145
    15.8,0.000761,0.000760,-0.001288,0.000567,  15.149
    16.0,0.000761,0.000758,-0.001252,0.000554,  15.142
    16.2,0.000753,0.000750,-0.001218,0.000540,  15.142
    16.4,0.000755,0.000753,-0.001183,0.000540,  15.145
    16.6,0.000753,0.000747,-0.001173,0.000527,  15.145
    16.8,0.000748,0.000742,-0.001183,0.000527,  15.143
    17.0,0.000744,0.000742,-0.001166,0.000514,  15.144
    17.2,0.000738,0.000735,-0.001156,0.000500,  15.144
    17.4,0.000728,0.000731,-0.001148,0.000500,  15.145
    17.6,0.000720,0.000730,-0.001140,0.000500,  15.147
    17.8,0.000714,0.000720,-0.001185,0.000474,  15.146
    18.0,0.000706,0.000713,-0.001238,0.000474,  15.146
    18.2,0.000697,0.000714,-0.001203,0.000474,  15.145
    18.4,0.000698,0.000710,-0.001167,0.000447,  15.149
    18.6,0.000688,0.000703,-0.001114,0.000447,  15.145
    18.8,0.000692,0.000703,-0.001112,0.000460,  15.149
    19.0,0.000686,0.000700,-0.001095,0.000460,  15.147
    19.2,0.000686,0.000699,-0.001104,0.000460,  15.146
    19.4,0.000679,0.000697,-0.001139,0.000460,  15.149
    19.6,0.000676,0.000692,-0.001158,0.000460,  15.148
    19.8,0.000672,0.000686,-0.001229,0.000460,  15.148
    20.0,0.000669,0.000692,-0.001192,0.000460,  15.147
    20.2,0.000666,0.000692,-0.001112,0.000460,  15.144
    20.4,0.000663,0.000689,-0.001005,0.000447,  15.147
    20.6,0.000663,0.000697,-0.001014,0.000447,  15.147
    20.8,0.000671,0.000697,-0.001076,0.000433,  15.149
    21.0,0.000674,0.000692,-0.001183,0.000433,  15.146
    21.2,0.000663,0.000688,-0.001227,0.000420,  15.146
    21.4,0.000664,0.000688,-0.001254,0.000420,  15.148
    21.6,0.000667,0.000688,-0.001271,0.000458,  15.146
    21.8,0.000663,0.000691,-0.001263,0.000407,  15.148
    22.0,0.000671,0.000695,-0.001254,0.000407,  15.150
    22.2,0.000677,0.000695,-0.001219,0.000458,  15.151
    22.4,0.000672,0.000694,-0.001175,0.000433,  15.149
    22.6,0.000680,0.000699,-0.001148,0.000447,  15.149
    22.8,0.000683,0.000698,-0.001148,0.000484,  15.149
    23.0,0.000686,0.000703,-0.001173,0.000460,  15.150
    23.2,0.000690,0.000703,-0.001306,0.000474,  15.148
    23.4,0.000690,0.000707,-0.001553,0.000484,  15.149
    23.6,0.000683,0.000705,-0.001861,0.000447,  15.151
    23.8,0.000683,0.000708,-0.002001,0.000447,  15.152
    24.0,0.000686,0.000713,-0.002081,0.000471,  15.150
    24.2,0.000682,0.000712,-0.002142,0.000433,  15.152
    24.4,0.000692,0.000714,-0.002062,0.000447,  15.152
    24.6,0.000695,0.000719,-0.001886,0.000484,  15.155
    24.8,0.000691,0.000722,-0.001657,0.000447,  15.154
    25.0,0.000698,0.000725,-0.001515,0.000460,  15.153
    25.2,0.000705,0.000727,-0.001375,0.000460,  15.151
    25.4,0.000700,0.000725,-0.001277,0.000460,  15.152
    25.6,0.000708,0.000725,-0.001206,0.000474,  15.155
    25.8,0.000711,0.000724,-0.001145,0.000474,  15.155
    26.0,0.000706,0.000729,-0.001110,0.000474,  15.154
    26.2,0.000711,0.000728,-0.001110,0.000487,  15.158
    26.4,0.000717,0.000727,-0.001147,0.000474,  15.155
    26.6,0.000716,0.000733,-0.001185,0.000487,  15.159
    26.8,0.000732,0.000731,-0.001140,0.000487,  15.154
    27.0,0.000736,0.000727,-0.001095,0.000487,  15.160
    27.2,0.000731,0.000730,-0.000989,0.000500,  15.159
    27.4,0.000731,0.000735,-0.000997,0.000487,  15.164
    27.6,0.000736,0.000734,-0.001006,0.000487,  15.161
    27.8,0.000728,0.000736,-0.001077,0.000500,  15.164
    28.0,0.000732,0.000741,-0.001112,0.000487,  15.167
    28.2,0.000732,0.000741,-0.001129,0.000487,  15.166
    28.4,0.000729,0.000739,-0.001131,0.000500,  15.168
    28.6,0.000719,0.000741,-0.001139,0.000487,  15.170
    28.8,0.000720,0.000741,-0.001121,0.000487,  15.172
    29.0,0.000720,0.000731,-0.001104,0.000500,  15.172
    29.2,0.000710,0.000736,-0.001068,0.000500,  15.177
    29.4,0.000717,0.000739,-0.001014,0.000514,  15.175
    29.6,0.000720,0.000733,-0.000995,0.000500,  15.176
    29.8,0.000716,0.000741,-0.001047,0.000500,  15.179
    30.0,0.000726,0.000743,-0.001118,0.000500,  15.178
    30.2,0.000732,0.000739,-0.001243,0.000500,  15.179
    30.4,0.000731,0.000747,-0.001321,0.000514,  15.182
    30.6,0.000742,0.000753,-0.001365,0.000527,  15.180
    30.8,0.000754,0.000757,-0.001410,0.000527,  15.185
    31.0,0.000759,0.000769,-0.001461,0.000554,  15.190
    31.2,0.000779,0.000776,-0.001460,0.000567,  15.190
    31.4,0.000791,0.000789,-0.001441,0.000567,  15.194
    31.6,0.000793,0.000808,-0.001422,0.000581,  15.196
    31.8,0.000806,0.000809,-0.001457,0.000607,  15.197
    32.0,0.000815,0.000817,-0.001545,0.000594,  15.197
    32.2,0.000824,0.000826,-0.001660,0.000607,  15.198
    32.4,0.000830,0.000831,-0.001729,0.000607,  15.201
    32.6,0.000840,0.000836,-0.001790,0.000607,  15.200
    32.8,0.000846,0.000838,-0.001851,0.000621,  15.202
    33.0,0.000853,0.000838,-0.001913,0.000621,  15.204
    33.2,0.000859,0.000846,-0.001964,0.000621,  15.207
    33.4,0.000858,0.000849,-0.002026,0.000634,  15.212
    33.6,0.000869,0.000855,-0.002324,0.000634,  15.210
    33.8,0.000872,0.000857,-0.002719,0.000621,  15.206
    34.0,0.000867,0.000854,-0.003236,0.000634,  15.213
    34.2,0.000878,0.000862,-0.003236,0.000634,  15.214
    34.4,0.000884,0.000866,-0.003088,0.000621,  15.216
    34.6,0.000877,0.000866,-0.002746,0.000634,  15.218
    34.8,0.000884,0.000874,-0.002614,0.000634,  15.222
    35.0,0.000887,0.000878,-0.002552,0.000634,  15.216
    35.2,0.000880,0.000875,-0.002490,0.000648,  15.218
    35.4,0.000890,0.000878,-0.002657,0.000634,  15.219
    35.6,0.000894,0.000884,-0.002964,0.000634,  15.219
    35.8,0.000883,0.000882,-0.003402,0.000648,  15.220
    36.0,0.000890,0.000882,-0.003349,0.000648,  15.221
    36.2,0.000890,0.000885,-0.003138,0.000648,  15.222
    36.4,0.000886,0.000884,-0.002735,0.000661,  15.223
    36.6,0.000886,0.000880,-0.002567,0.000661,  15.225
    36.8,0.000894,0.000879,-0.002461,0.000648,  15.223
    37.0,0.000889,0.000882,-0.002355,0.000661,  15.228
    37.2,0.000897,0.000892,-0.002302,0.000661,  15.227
    37.4,0.000897,0.000897,-0.002302,0.000648,  15.225
    37.6,0.000900,0.000894,-0.002338,0.000661,  15.225
    37.8,0.000895,0.000892,-0.002285,0.000648,  15.226
    38.0,0.000906,0.000894,-0.002231,0.000634,  15.227
    38.2,0.000909,0.000889,-0.002178,0.000634,  15.228
    38.4,0.000902,0.000889,-0.002161,0.000648,  15.227
    38.6,0.000903,0.000889,-0.002153,0.000634,  15.229
    38.8,0.000900,0.000883,-0.002206,0.000634,  15.233
    39.0,0.000892,0.000884,-0.002216,0.000634,  15.226
    39.2,0.000894,0.000879,-0.002233,0.000621,  15.229
    39.4,0.000890,0.000876,-0.002235,0.000621,  15.231
    39.6,0.000884,0.000871,-0.002279,0.000634,  15.227
    39.8,0.000885,0.000864,-0.002198,0.000634,  15.229
    40.0,0.000882,0.000869,-0.002093,0.000621,  15.231
    40.2,0.000876,0.000867,-0.001969,0.000621,  15.229
    40.4,0.000870,0.000856,-0.001916,0.000607,  15.232
    40.6,0.000864,0.000855,-0.001891,0.000581,  15.240
    40.8,0.000847,0.000845,-0.001900,0.000581,  15.235
    41.0,0.000838,0.000840,-0.001900,0.000567,  15.233
    41.2,0.000835,0.000833,-0.001909,0.000554,  15.234
    41.4,0.000821,0.000829,-0.001946,0.000540,  15.233
    41.6,0.000815,0.000824,-0.001938,0.000540,  15.235
    41.8,0.000812,0.000822,-0.001938,0.000540,  15.238
    42.0,0.000806,0.000817,-0.001930,0.000527,  15.232
    42.2,0.000804,0.000815,-0.001922,0.000527,  15.232
    42.4,0.000801,0.000815,-0.001922,0.000540,  15.233
    42.6,0.000793,0.000807,-0.001957,0.000540,  15.236
    42.8,0.000798,0.000809,-0.001928,0.000540,  15.237
    43.0,0.000798,0.000807,-0.001850,0.000527,  15.234
    43.2,0.000790,0.000805,-0.001779,0.000540,  15.234
    43.4,0.000794,0.000805,-0.001814,0.000527,  15.233
    43.6,0.000791,0.000803,-0.001894,0.000500,  15.237
    43.8,0.000778,0.000798,-0.002010,0.000514,  15.237
    44.0,0.000779,0.000801,-0.001974,0.000514,  15.236
    44.2,0.000776,0.000801,-0.001876,0.000500,  15.237
    44.4,0.000765,0.000796,-0.001743,0.000514,  15.237
    44.6,0.000770,0.000796,-0.001733,0.000514,  15.235
    44.8,0.000770,0.000798,-0.001752,0.000500,  15.237
    45.0,0.000765,0.000795,-0.001850,0.000514,  15.235
    45.2,0.000765,0.000803,-0.001858,0.000514,  15.235
    45.4,0.000776,0.000803,-0.001840,0.000500,  15.234
    45.6,0.000768,0.000806,-0.001796,0.000476,  15.237
    45.8,0.000773,0.000810,-0.001963,0.000476,  15.235
    46.0,0.000770,0.000810,-0.002236,0.000463,  15.234
    46.2,0.000770,0.000807,-0.002605,0.000439,  15.236
    46.4,0.000770,0.000799,-0.002569,0.000439,  15.237
    46.6,0.000774,0.000799,-0.002410,0.000463,  15.236
    46.8,0.000774,0.000793,-0.002111,0.000449,  15.235
    47.0,0.000774,0.000791,-0.002032,0.000463,  15.235
    47.2,0.000771,0.000789,-0.002032,0.000449,  15.235
    47.4,0.000771,0.000783,-0.002068,0.000449,  15.230
    47.6,0.000774,0.000786,-0.002043,0.000463,  15.233
    47.8,0.000774,0.000781,-0.002043,0.000425,  15.234
    48.0,0.000777,0.000780,-0.002051,0.000463,  15.235
    48.2,0.000770,0.000784,-0.002041,0.000476,  15.236
    48.4,0.000773,0.000786,-0.002015,0.000476,  15.237
    48.6,0.000773,0.000783,-0.001988,0.000463,  15.234
    48.8,0.000762,0.000785,-0.001936,0.000476,  15.236
    49.0,0.000767,0.000787,-0.001892,0.000476,  15.237
    49.2,0.000767,0.000785,-0.001883,0.000463,  15.238
    49.4,0.000756,0.000783,-0.001839,0.000476,  15.235
    49.6,0.000760,0.000783,-0.001795,0.000463,  15.236
    49.8,0.000760,0.000780,-0.001768,0.000449,  15.239
    50.0,0.000753,0.000777,-0.001751,0.000463,  15.236
    50.2,0.000760,0.000772,-0.001812,0.000463,  15.236
    50.4,0.000765,0.000777,-0.001902,0.000463,  15.235
    50.6,0.000765,0.000779,-0.002062,0.000476,  15.238
    50.8,0.000772,0.000784,-0.002106,0.000476,  15.234
    51.0,0.000769,0.000783,-0.002123,0.000463,  15.237
    51.2,0.000769,0.000782,-0.002098,0.000476,  15.232
    51.4,0.000765,0.000790,-0.002125,0.000476,  15.230
    51.6,0.000760,0.000790,-0.002169,0.000463,  15.231
    51.8,0.000763,0.000788,-0.002239,0.000476,  15.235
    52.0,0.000774,0.000786,-0.002239,0.000476,  15.232
    52.2,0.000777,0.000786,-0.002195,0.000463,  15.231
    52.4,0.000777,0.000778,-0.002159,0.000476,  15.232
    52.6,0.000774,0.000784,-0.002087,0.000476,  15.229
    52.8,0.000774,0.000786,-0.001972,0.000463,  15.230
    53.0,0.000777,0.000778,-0.001848,0.000476,  15.229
    53.2,0.000777,0.000784,-0.001848,0.000476,  15.227
    53.4,0.000780,0.000784,-0.001894,0.000463,  15.229
    53.6,0.000776,0.000781,-0.002035,0.000476,  15.226
    53.8,0.000786,0.000788,-0.002070,0.000490,  15.226
    54.0,0.000786,0.000798,-0.002087,0.000503,  15.223
    54.2,0.000791,0.000803,-0.002112,0.000516,  15.226
    54.4,0.000808,0.000813,-0.002067,0.000530,  15.224
    54.6,0.000819,0.000823,-0.002004,0.000530,  15.225
    54.8,0.000832,0.000831,-0.001931,0.000543,  15.224
    55.0,0.000837,0.000843,-0.001922,0.000570,  15.222
    55.2,0.000850,0.000847,-0.001956,0.000556,  15.222
    55.4,0.000859,0.000853,-0.002010,0.000570,  15.223
    55.6,0.000869,0.000874,-0.002123,0.000621,  15.223
    55.8,0.000882,0.000886,-0.002239,0.000583,  15.218
    56.0,0.000889,0.000887,-0.002399,0.000621,  15.216
    56.2,0.000895,0.000892,-0.002451,0.000621,  15.215
    56.4,0.000898,0.000898,-0.002443,0.000621,  15.214
    56.6,0.000911,0.000898,-0.002434,0.000621,  15.216
    56.8,0.000915,0.000902,-0.002424,0.000634,  15.214
    57.0,0.000918,0.000902,-0.002406,0.000634,  15.218
    57.2,0.000931,0.000905,-0.002362,0.000621,  15.214
    57.4,0.000934,0.000907,-0.002326,0.000634,  15.214
    57.6,0.000927,0.000906,-0.002289,0.000634,  15.216
    57.8,0.000930,0.000913,-0.002272,0.000634,  15.215
    58.0,0.000933,0.000916,-0.002280,0.000648,  15.216
    58.2,0.000936,0.000920,-0.002271,0.000634,  15.213
    58.4,0.000935,0.000923,-0.002271,0.000634,  15.213
    58.6,0.000935,0.000925,-0.002271,0.000648,  15.212
    58.8,0.000935,0.000928,-0.002244,0.000648,  15.210
    59.0,0.000934,0.000924,-0.002227,0.000648,  15.211
    59.2,0.000937,0.000929,-0.002209,0.000661,  15.207
    59.4,0.000947,0.000929,-0.002209,0.000661,  15.209
    59.6,0.000950,0.000929,-0.002219,0.000661,  15.210
    59.8,0.000950,0.000933,-0.002272,0.000661,  15.211
    60.0,0.000950,0.000936,-0.002299,0.000661,  15.209
    60.2,0.000954,0.000940,-0.002360,0.000661,  15.211
    60.4,0.000957,0.000935,-0.002413,0.000661,  15.210
    60.6,0.000960,0.000935,-0.002396,0.000661,  15.205
    60.8,0.000960,0.000942,-0.002377,0.000661,  15.210
    61.0,0.000957,0.000944,-0.002341,0.000661,  15.209
    61.2,0.000954,0.000956,-0.002322,0.000661,  15.212
    61.4,0.000957,0.000960,-0.002296,0.000661,  15.208
    61.6,0.000949,0.000956,-0.002271,0.000661,  15.206
    61.8,0.000952,0.000962,-0.002234,0.000661,  15.207
    62.0,0.000952,0.000964,-0.002198,0.000661,  15.206
    62.2,0.000952,0.000956,-0.002120,0.000661,  15.209
    62.4,0.000957,0.000956,-0.002093,0.000661,  15.210
    62.6,0.000954,0.000954,-0.002076,0.000648,  15.206
    62.8,0.000946,0.000947,-0.002077,0.000661,  15.206
    63.0,0.000947,0.000943,-0.002043,0.000648,  15.208
    63.2,0.000941,0.000938,-0.001999,0.000634,  15.212
    63.4,0.000924,0.000931,-0.001982,0.000634,  15.212
    63.6,0.000923,0.000927,-0.001938,0.000621,  15.212
    63.8,0.000913,0.000922,-0.001894,0.000594,  15.213
    64.0,0.000904,0.000913,-0.001832,0.000594,  15.208
    64.2,0.000898,0.000903,-0.002008,0.000594,  15.207
    64.4,0.000889,0.000898,-0.002308,0.000581,  15.209
    64.6,0.000882,0.000888,-0.002730,0.000567,  15.211
    64.8,0.000876,0.000883,-0.002757,0.000567,  15.206
    65.0,0.000867,0.000878,-0.002635,0.000567,  15.209
    65.2,0.000861,0.000866,-0.002407,0.000567,  15.211
    65.4,0.000854,0.000859,-0.002337,0.000581,  15.210
    65.6,0.000848,0.000853,-0.002250,0.000567,  15.215
    65.8,0.000842,0.000855,-0.002214,0.000554,  15.209
    66.0,0.000839,0.000855,-0.002162,0.000540,  15.211
    66.2,0.000833,0.000855,-0.002109,0.000540,  15.212
    66.4,0.000833,0.000850,-0.002057,0.000578,  15.213
    66.6,0.000830,0.000846,-0.002021,0.000527,  15.212
    66.8,0.000824,0.000841,-0.001994,0.000527,  15.211
    67.0,0.000820,0.000840,-0.001969,0.000565,  15.215
    67.2,0.000817,0.000841,-0.001952,0.000540,  15.215
    67.4,0.000811,0.000839,-0.001942,0.000527,  15.212
    67.6,0.000811,0.000836,-0.001942,0.000551,  15.213
    67.8,0.000804,0.000831,-0.001925,0.000527,  15.212
    68.0,0.000804,0.000829,-0.001969,0.000500,  15.207
    68.2,0.000807,0.000826,-0.002032,0.000524,  15.206
    68.4,0.000807,0.000826,-0.002131,0.000500,  15.209
    68.6,0.000811,0.000823,-0.002104,0.000500,  15.216
    68.8,0.000814,0.000820,-0.002034,0.000538,  15.212
    69.0,0.000807,0.000822,-0.001953,0.000514,  15.216
    69.2,0.000807,0.000822,-0.002103,0.000514,  15.215
    69.4,0.000810,0.000819,-0.002366,0.000538,  15.215
    69.6,0.000799,0.000819,-0.002744,0.000514,  15.213
    69.8,0.000807,0.000821,-0.002815,0.000514,  15.214
    70.0,0.000807,0.000821,-0.002790,0.000538,  15.217
    70.2,0.000804,0.000825,-0.002677,0.000514,  15.214
    70.4,0.000805,0.000829,-0.002545,0.000514,  15.217
    70.6,0.000805,0.000829,-0.002377,0.000538,  15.217
    70.8,0.000802,0.000826,-0.002156,0.000514,  15.216
    71.0,0.000796,0.000820,-0.002085,0.000514,  15.218
    71.2,0.000796,0.000820,-0.002068,0.000538,  15.219
    71.4,0.000791,0.000823,-0.002147,0.000514,  15.217
    71.6,0.000805,0.000828,-0.002101,0.000514,  15.216
    71.8,0.000808,0.000831,-0.001996,0.000538,  15.218
    72.0,0.000804,0.000822,-0.001891,0.000514,  15.216
    72.2,0.000811,0.000824,-0.001881,0.000514,  15.216
    72.4,0.000801,0.000824,-0.001881,0.000538,  15.218
    72.6,0.000804,0.000824,-0.001927,0.000514,  15.220
    72.8,0.000793,0.000825,-0.002049,0.000500,  15.219
    73.0,0.000801,0.000825,-0.002233,0.000524,  15.218
    73.2,0.000801,0.000825,-0.002462,0.000500,  15.220
    73.4,0.000790,0.000823,-0.002435,0.000487,  15.219
    73.6,0.000794,0.000820,-0.002321,0.000524,  15.221
    73.8,0.000794,0.000822,-0.002128,0.000524,  15.221
    74.0,0.000784,0.000819,-0.002093,0.000500,  15.224
    74.2,0.000788,0.000816,-0.002103,0.000500,  15.220
    74.4,0.000788,0.000821,-0.002173,0.000524,  15.220
    74.6,0.000784,0.000819,-0.002183,0.000500,  15.220
    74.8,0.000791,0.000813,-0.002200,0.000538,  15.220
    75.0,0.000791,0.000817,-0.002191,0.000538,  15.222
    75.2,0.000787,0.000812,-0.002191,0.000514,  15.229
    75.4,0.000791,0.000809,-0.002120,0.000514,  15.225
    75.6,0.000791,0.000811,-0.002032,0.000538,  15.226
    75.8,0.000784,0.000816,-0.001935,0.000514,  15.223
    76.0,0.000788,0.000817,-0.001854,0.000514,  15.226
    76.2,0.000791,0.000820,-0.001810,0.000538,  15.225
    76.4,0.000790,0.000832,-0.001784,0.000514,  15.226
    76.6,0.000804,0.000832,-0.001828,0.000514,  15.226
    76.8,0.000807,0.000832,-0.001942,0.000551,  15.228
    77.0,0.000802,0.000837,-0.002111,0.000527,  15.230
    77.2,0.000810,0.000837,-0.002445,0.000514,  15.229
    77.4,0.000819,0.000834,-0.002909,0.000551,  15.224
    77.6,0.000821,0.000840,-0.003477,0.000540,  15.229
    77.8,0.000841,0.000842,-0.003723,0.000554,  15.230
    78.0,0.000853,0.000849,-0.003888,0.000605,  15.232
    78.2,0.000855,0.000856,-0.003949,0.000581,  15.230
    78.4,0.000872,0.000866,-0.003843,0.000607,  15.232
    78.6,0.000884,0.000868,-0.003615,0.000632,  15.231
    78.8,0.000889,0.000875,-0.003238,0.000607,  15.232
    79.0,0.000903,0.000885,-0.003097,0.000607,  15.235
    79.2,0.000909,0.000887,-0.003009,0.000645,  15.236
    79.4,0.000918,0.000891,-0.002975,0.000621,  15.235
    79.6,0.000929,0.000903,-0.002886,0.000621,  15.234
    79.8,0.000935,0.000904,-0.002788,0.000658,  15.237
    80.0,0.000931,0.000915,-0.002666,0.000634,  15.240
    80.2,0.000934,0.000920,-0.002577,0.000634,  15.234
    80.4,0.000937,0.000922,-0.002523,0.000672,  15.238
    80.6,0.000933,0.000928,-0.002453,0.000648,  15.240
    80.8,0.000937,0.000937,-0.002382,0.000648,  15.239
    81.0,0.000940,0.000939,-0.002338,0.000685,  15.241
    81.2,0.000933,0.000933,-0.002311,0.000661,  15.239
    81.4,0.000936,0.000939,-0.002285,0.000661,  15.241
    81.6,0.000943,0.000939,-0.002267,0.000699,  15.239
    81.8,0.000942,0.000933,-0.002267,0.000661,  15.241
    82.0,0.000949,0.000939,-0.002302,0.000661,  15.244
    82.2,0.000957,0.000938,-0.002346,0.000699,  15.244
    82.4,0.000960,0.000935,-0.002409,0.000661,  15.241
    82.6,0.000960,0.000940,-0.002374,0.000661,  15.244
    82.8,0.000960,0.000942,-0.002348,0.000699,  15.244
    83.0,0.000960,0.000944,-0.002304,0.000699,  15.244
    83.2,0.000960,0.000946,-0.002338,0.000661,  15.244
    83.4,0.000960,0.000943,-0.002401,0.000661,  15.243
    83.6,0.000963,0.000946,-0.002508,0.000699,  15.243
    83.8,0.000966,0.000943,-0.002561,0.000661,  15.248
    84.0,0.000966,0.000935,-0.002595,0.000699,  15.249
    84.2,0.000969,0.000941,-0.002622,0.000699,  15.247
    84.4,0.000972,0.000947,-0.002622,0.000661,  15.245
    84.6,0.000966,0.000944,-0.002666,0.000661,  15.246
    84.8,0.000966,0.000944,-0.002719,0.000699,  15.246
    85.0,0.000969,0.000952,-0.002790,0.000661,  15.248
    85.2,0.000966,0.000949,-0.002763,0.000661,  15.247
    85.4,0.000966,0.000954,-0.002718,0.000699,  15.248
    85.6,0.000966,0.000954,-0.002613,0.000661,  15.245
    85.8,0.000963,0.000954,-0.002569,0.000661,  15.241
    86.0,0.000960,0.000951,-0.002534,0.000685,  15.242
    86.2,0.000957,0.000952,-0.002526,0.000661,  15.245
    86.4,0.000950,0.000950,-0.002473,0.000648,  15.249
    86.6,0.000947,0.000945,-0.002429,0.000672,  15.247
    86.8,0.000941,0.000946,-0.002343,0.000648,  15.252
    87.0,0.000935,0.000939,-0.002878,0.000621,  15.248
    87.2,0.000929,0.000932,-0.003701,0.000645,  15.248
    87.4,0.000923,0.000922,-0.004837,0.000607,  15.252
    87.6,0.000913,0.000918,-0.004881,0.000594,  15.249
    87.8,0.000904,0.000916,-0.004489,0.000618,  15.249
    88.0,0.000895,0.000906,-0.003738,0.000581,  15.250
    88.2,0.000882,0.000903,-0.003468,0.000581,  15.249
    88.4,0.000877,0.000895,-0.003241,0.000605,  15.247
    88.6,0.000876,0.000891,-0.003083,0.000567,  15.248
    88.8,0.000878,0.000883,-0.002890,0.000581,  15.255
    89.0,0.000872,0.000875,-0.002697,0.000605,  15.250
    89.2,0.000861,0.000873,-0.002531,0.000567,  15.251
    89.4,0.000857,0.000863,-0.002390,0.000581,  15.251
    89.6,0.000857,0.000855,-0.002283,0.000605,  15.250
    89.8,0.000850,0.000861,-0.002187,0.000567,  15.250
    90.0,0.000850,0.000859,-0.002153,0.000567,  15.250
    90.2,0.000850,0.000857,-0.002162,0.000591,  15.249
    90.4,0.000853,0.000857,-0.002225,0.000540,  15.251
    90.6,0.000850,0.000863,-0.002181,0.000540,  15.253
    90.8,0.000857,0.000863,-0.002111,0.000578,  15.258
    91.0,0.000853,0.000857,-0.002030,0.000527,  15.253
    91.2,0.000846,0.000860,-0.001986,0.000527,  15.255
    91.4,0.000851,0.000861,-0.001977,0.000578,  15.254
    91.6,0.000843,0.000859,-0.001979,0.000578,  15.252
    91.8,0.000840,0.000861,-0.001988,0.000540,  15.254
    92.0,0.000837,0.000858,-0.002049,0.000554,  15.254
    92.2,0.000837,0.000861,-0.002103,0.000578,  15.257
    92.4,0.000840,0.000858,-0.002085,0.000554,  15.258
    92.6,0.000840,0.000855,-0.002059,0.000591,  15.255
    92.8,0.000840,0.000848,-0.002005,0.000578,  15.259
    93.0,0.000840,0.000851,-0.001979,0.000540,  15.259
    93.2,0.000834,0.000853,-0.001935,0.000540,  15.257
    93.4,0.000827,0.000845,-0.001891,0.000565,  15.256
    93.6,0.000830,0.000846,-0.001846,0.000540,  15.258
    93.8,0.000827,0.000845,-0.001810,0.000540,  15.261
    94.0,0.000819,0.000842,-0.001776,0.000565,  15.256
    94.2,0.000815,0.000844,-0.001766,0.000540,  15.254
    94.4,0.000819,0.000850,-0.001774,0.000540,  15.253
    94.6,0.000819,0.000848,-0.001799,0.000565,  15.255
    94.8,0.000819,0.000848,-0.001851,0.000540,  15.254
    95.0,0.000824,0.000847,-0.001895,0.000551,  15.259
    95.2,0.000824,0.000847,-0.001958,0.000562,  15.260
    95.4,0.000824,0.000849,-0.002021,0.000538,  15.259
    95.6,0.000824,0.000846,-0.002074,0.000538,  15.260
    95.8,0.000820,0.000848,-0.002120,0.000538,  15.259
    96.0,0.000820,0.000840,-0.002173,0.000514,  15.258
    96.2,0.000820,0.000844,-0.002235,0.000514,  15.259
    96.4,0.000817,0.000844,-0.002271,0.000551,  15.258
    96.6,0.000817,0.000841,-0.002290,0.000527,  15.263
    96.8,0.000817,0.000844,-0.002219,0.000514,  15.258
    97.0,0.000824,0.000849,-0.002112,0.000551,  15.259
    97.2,0.000827,0.000851,-0.001953,0.000527,  15.258
    97.4,0.000827,0.000858,-0.002173,0.000514,  15.257
    97.6,0.000830,0.000860,-0.002586,0.000551,  15.262
    97.8,0.000833,0.000857,-0.003200,0.000527,  15.259
    98.0,0.000830,0.000858,-0.003227,0.000514,  15.261
    98.2,0.000830,0.000855,-0.003069,0.000551,  15.262
    98.4,0.000827,0.000853,-0.002719,0.000527,  15.264
    98.6,0.000827,0.000859,-0.002561,0.000514,  15.264
    98.8,0.000831,0.000859,-0.002403,0.000551,  15.266
    99.0,0.000831,0.000854,-0.002244,0.000527,  15.262
    99.2,0.000831,0.000859,-0.002183,0.000514,  15.266
    99.4,0.000831,0.000855,-0.002165,0.000551,  15.264
    99.6,0.000831,0.000860,-0.002236,0.000527,  15.266
    99.8,0.000834,0.000857,-0.002534,0.000527,  15.264
   100.0,0.000834,0.000856,-0.002990,0.000565,  15.267
   100.2,0.000834,0.000861,-0.003604,0.000565,  15.266
   100.4,0.000837,0.000858,-0.003604,0.000527,  15.267
   100.6,0.000837,0.000857,-0.003385,0.000540,  15.267
   100.8,0.000843,0.000864,-0.002939,0.000578,  15.269
   101.0,0.000856,0.000872,-0.002842,0.000554,  15.272
   101.2,0.000868,0.000879,-0.002780,0.000605,  15.269
   101.4,0.000881,0.000887,-0.002806,0.000605,  15.270
   101.6,0.000893,0.000901,-0.002884,0.000594,  15.270
   101.8,0.000902,0.000906,-0.003136,0.000607,  15.267
   102.0,0.000915,0.000913,-0.003477,0.000645,  15.272
   102.2,0.000924,0.000921,-0.003906,0.000621,  15.273
   102.4,0.000930,0.000928,-0.003923,0.000621,  15.275
   102.6,0.000939,0.000927,-0.003757,0.000634,  15.276
   102.8,0.000946,0.000934,-0.003468,0.000648,  15.275
   103.0,0.000946,0.000933,-0.003291,0.000648,  15.274
   103.2,0.000952,0.000941,-0.003070,0.000648,  15.277
   103.4,0.000958,0.000938,-0.002842,0.000661,  15.275
   103.6,0.000961,0.000945,-0.002727,0.000661,  15.274
   103.8,0.000967,0.000953,-0.002666,0.000661,  15.278
   104.0,0.000967,0.000955,-0.002658,0.000661,  15.275
   104.2,0.000970,0.000960,-0.002570,0.000661,  15.276
   104.4,0.000973,0.000961,-0.002500,0.000661,  15.278
   104.6,0.000980,0.000969,-0.002412,0.000661,  15.279
   104.8,0.000980,0.000968,-0.002412,0.000661,  15.275
   105.0,0.000975,0.000965,-0.002483,0.000661,  15.280
   105.2,0.000978,0.000969,-0.002606,0.000661,  15.278
   105.4,0.000978,0.000974,-0.002606,0.000661,  15.277
   105.6,0.000974,0.000974,-0.002563,0.000661,  15.280
   105.8,0.000974,0.000968,-0.002492,0.000661,  15.282
   106.0,0.000981,0.000975,-0.002553,0.000661,  15.281
   106.2,0.000981,0.000974,-0.002633,0.000661,  15.283
   106.4,0.000985,0.000971,-0.002749,0.000674,  15.278
   106.6,0.000985,0.000973,-0.002757,0.000674,  15.282
   106.8,0.000992,0.000970,-0.002723,0.000674,  15.284
   107.0,0.000995,0.000970,-0.002679,0.000688,  15.283
   107.2,0.000992,0.000973,-0.002669,0.000688,  15.281
   107.4,0.000992,0.000968,-0.002652,0.000674,  15.284
   107.6,0.000995,0.000973,-0.002679,0.000674,  15.283
   107.8,0.000995,0.000981,-0.002688,0.000674,  15.285
   108.0,0.000992,0.000978,-0.002723,0.000674,  15.282
   108.2,0.000995,0.000981,-0.002774,0.000674,  15.282
   108.4,0.000995,0.000985,-0.002959,0.000674,  15.285
   108.6,0.000995,0.000982,-0.003274,0.000674,  15.284
   108.8,0.000995,0.000979,-0.003659,0.000674,  15.284
   109.0,0.000992,0.000973,-0.003640,0.000674,  15.285
   109.2,0.000989,0.000969,-0.003448,0.000688,  15.283
   109.4,0.000989,0.000973,-0.003099,0.000674,  15.283
   109.6,0.000983,0.000968,-0.002940,0.000674,  15.285
   109.8,0.000973,0.000960,-0.002817,0.000661,  15.283
   110.0,0.000970,0.000958,-0.002685,0.000648,  15.285
   110.2,0.000967,0.000953,-0.002580,0.000648,  15.284
   110.4,0.000958,0.000942,-0.002501,0.000634,  15.287
   110.6,0.000952,0.000936,-0.002457,0.000621,  15.285
   110.8,0.000946,0.000936,-0.002423,0.000621,  15.283
   111.0,0.000936,0.000928,-0.002484,0.000621,  15.284
   111.2,0.000933,0.000921,-0.002599,0.000594,  15.285
   111.4,0.000927,0.000920,-0.002766,0.000594,  15.282
   111.6,0.000921,0.000919,-0.002730,0.000594,  15.284
   111.8,0.000918,0.000911,-0.002600,0.000567,  15.282
   112.0,0.000908,0.000904,-0.002399,0.000567,  15.285
   112.2,0.000899,0.000901,-0.002365,0.000567,  15.283
   112.4,0.000893,0.000899,-0.002401,0.000554,  15.282
   112.6,0.000887,0.000892,-0.002498,0.000554,  15.284
   112.8,0.000884,0.000884,-0.002481,0.000554,  15.283
   113.0,0.000873,0.000888,-0.002454,0.000554,  15.285
   113.2,0.000870,0.000885,-0.002418,0.000540,  15.287
   113.4,0.000870,0.000883,-0.002365,0.000540,  15.286
   113.6,0.000863,0.000888,-0.002294,0.000540,  15.284
   113.8,0.000856,0.000886,-0.002233,0.000527,  15.287
   114.0,0.000858,0.000879,-0.002233,0.000527,  15.288
   114.2,0.000854,0.000868,-0.002277,0.000540,  15.285
   114.4,0.000850,0.000869,-0.002357,0.000540,  15.279
   114.6,0.000854,0.000868,-0.002330,0.000540,  15.281
   114.8,0.000854,0.000858,-0.002304,0.000540,  15.282
   115.0,0.000847,0.000858,-0.002235,0.000540,  15.281
   115.2,0.000848,0.000858,-0.002252,0.000540,  15.281
   115.4,0.000842,0.000853,-0.002313,0.000540,  15.284
   115.6,0.000842,0.000856,-0.002393,0.000540,  15.280
   115.8,0.000842,0.000863,-0.002340,0.000540,  15.282
   116.0,0.000845,0.000857,-0.002241,0.000540,  15.281
   116.2,0.000848,0.000859,-0.002082,0.000540,  15.282
   116.4,0.000848,0.000857,-0.002109,0.000540,  15.283
   116.6,0.000845,0.000852,-0.002224,0.000554,  15.280
   116.8,0.000856,0.000852,-0.002401,0.000540,  15.281
   117.0,0.000853,0.000849,-0.002428,0.000554,  15.278
   117.2,0.000846,0.000842,-0.002445,0.000554,  15.277
   117.4,0.000854,0.000844,-0.002435,0.000540,  15.281
   117.6,0.000851,0.000846,-0.002418,0.000540,  15.280
   117.8,0.000837,0.000848,-0.002399,0.000540,  15.284
   118.0,0.000833,0.000844,-0.002373,0.000527,  15.279
   118.2,0.000833,0.000851,-0.002329,0.000540,  15.278
   118.4,0.000836,0.000853,-0.002285,0.000540,  15.278
   118.6,0.000828,0.000856,-0.002249,0.000540,  15.278
   118.8,0.000825,0.000858,-0.002205,0.000540,  15.274
   119.0,0.000830,0.000858,-0.002161,0.000540,  15.282
   119.2,0.000827,0.000858,-0.002159,0.000540,  15.280
   119.4,0.000824,0.000855,-0.002134,0.000540,  15.282
   119.6,0.000820,0.000850,-0.002117,0.000540,  15.283
   119.8,0.000820,0.000847,-0.002159,0.000540,  15.283
   120.0,0.000820,0.000849,-0.002203,0.000540,  15.282
   120.2,0.000824,0.000848,-0.002396,0.000540,  15.280
   120.4,0.000827,0.000845,-0.002668,0.000527,  15.282
   120.6,0.000827,0.000837,-0.003028,0.000540,  15.281
   120.8,0.000824,0.000837,-0.003072,0.000540,  15.281
   121.0,0.000831,0.000837,-0.003019,0.000527,  15.279
   121.2,0.000834,0.000835,-0.002853,0.000540,  15.281
   121.4,0.000834,0.000841,-0.002790,0.000540,  15.279
   121.6,0.000845,0.000840,-0.002702,0.000527,  15.280
   121.8,0.000848,0.000848,-0.002649,0.000540,  15.283
   122.0,0.000843,0.000852,-0.002577,0.000540,  15.283
   122.2,0.000846,0.000849,-0.002489,0.000527,  15.281
   122.4,0.000843,0.000857,-0.002401,0.000540,  15.282
   122.6,0.000843,0.000855,-0.002479,0.000527,  15.283
   122.8,0.000846,0.000852,-0.002664,0.000551,  15.284
   123.0,0.000843,0.000850,-0.002937,0.000527,  15.286
   123.2,0.000843,0.000853,-0.002937,0.000527,  15.284
   123.4,0.000846,0.000855,-0.002884,0.000565,  15.284
   123.6,0.000850,0.000852,-0.002752,0.000540,  15.284
   123.8,0.000850,0.000865,-0.002726,0.000540,  15.286
   124.0,0.000860,0.000869,-0.002691,0.000578,  15.285
   124.2,0.000869,0.000876,-0.002726,0.000554,  15.289
   124.4,0.000876,0.000883,-0.002697,0.000567,  15.289
   124.6,0.000885,0.000890,-0.002661,0.000581,  15.288
   124.8,0.000893,0.000899,-0.002616,0.000607,  15.288
   125.0,0.000902,0.000909,-0.002641,0.000607,  15.289
   125.2,0.000922,0.000913,-0.002719,0.000607,  15.289
   125.4,0.000927,0.000922,-0.002809,0.000621,  15.291
   125.6,0.000936,0.000933,-0.002843,0.000634,  15.295
   125.8,0.000950,0.000932,-0.002876,0.000634,  15.293
   126.0,0.000949,0.000939,-0.002893,0.000634,  15.290
   126.2,0.000958,0.000947,-0.002920,0.000648,  15.290
   126.4,0.000975,0.000946,-0.002972,0.000634,  15.290
   126.6,0.000973,0.000957,-0.003008,0.000648,  15.293
   126.8,0.000977,0.000965,-0.003078,0.000661,  15.293
   127.0,0.000990,0.000969,-0.003060,0.000661,  15.294
   127.2,0.000992,0.000974,-0.003006,0.000661,  15.294
   127.4,0.000995,0.000980,-0.002909,0.000661,  15.297
   127.6,0.001006,0.000981,-0.002944,0.000661,  15.298
   127.8,0.001004,0.000986,-0.003014,0.000661,  15.298
   128.0,0.001007,0.000991,-0.003121,0.000674,  15.299
   128.2,0.001011,0.000992,-0.003252,0.000674,  15.298
   128.4,0.001014,0.001003,-0.003418,0.000674,  15.299
   128.6,0.001017,0.001003,-0.003628,0.000688,  15.300
   128.8,0.001023,0.001005,-0.003679,0.000701,  15.302
   129.0,0.001019,0.001010,-0.003662,0.000688,  15.302
   129.2,0.001025,0.001012,-0.003611,0.000688,  15.304
   129.4,0.001028,0.001012,-0.003601,0.000701,  15.304
   129.6,0.001027,0.001015,-0.003567,0.000688,  15.306
   129.8,0.001027,0.001020,-0.003532,0.000688,  15.304
   130.0,0.001031,0.001020,-0.003479,0.000701,  15.309
   130.2,0.001034,0.001023,-0.003417,0.000688,  15.308
   130.4,0.001034,0.001020,-0.003362,0.000688,  15.313
   130.6,0.001034,0.001026,-0.003790,0.000701,  15.312
   130.8,0.001045,0.001028,-0.004464,0.000701,  15.312
   131.0,0.001045,0.001028,-0.005389,0.000701,  15.313
   131.2,0.001049,0.001030,-0.005431,0.000701,  15.312
   131.4,0.001052,0.001030,-0.005143,0.000701,  15.317
   131.6,0.001055,0.001035,-0.004532,0.000701,  15.315
   131.8,0.001051,0.001034,-0.004375,0.000701,  15.316
   132.0,0.001054,0.001035,-0.004304,0.000701,  15.318
   132.2,0.001057,0.001040,-0.004314,0.000701,  15.319
   132.4,0.001057,0.001037,-0.004261,0.000701,  15.322
   132.6,0.001061,0.001037,-0.004217,0.000725,  15.320
   132.8,0.001061,0.001043,-0.004191,0.000688,  15.323
   133.0,0.001058,0.001045,-0.004084,0.000688,  15.326
   133.2,0.001048,0.001039,-0.003944,0.000712,  15.326
   133.4,0.001045,0.001039,-0.003777,0.000661,  15.325
   133.6,0.001038,0.001034,-0.003741,0.000661,  15.327
   133.8,0.001032,0.001031,-0.003750,0.000699,  15.326
   134.0,0.001022,0.001030,-0.003838,0.000648,  15.330
   134.2,0.001019,0.001026,-0.003792,0.000634,  15.330
   134.4,0.001016,0.001026,-0.003687,0.000672,  15.334
   134.6,0.001009,0.001018,-0.003573,0.000672,  15.334
   134.8,0.001003,0.001020,-0.003537,0.000621,  15.334
   135.0,0.001012,0.001020,-0.003511,0.000621,  15.339
   135.2,0.001012,0.001012,-0.003493,0.000645,  15.337
   135.4,0.001012,0.001013,-0.003511,0.000607,  15.339
   135.6,0.001009,0.001011,-0.003545,0.000632,  15.337
   135.8,0.000999,0.001008,-0.003606,0.000632,  15.340
   136.0,0.000998,0.001009,-0.003669,0.000594,  15.345
   136.2,0.001004,0.001009,-0.003722,0.000632,  15.346
   136.4,0.000994,0.001003,-0.003783,0.000642,  15.349
   136.6,0.000990,0.001006,-0.003844,0.000605,  15.348
   136.8,0.000999,0.001003,-0.003844,0.000618,  15.350
   137.0,0.000998,0.001008,-0.003852,0.000605,  15.349
   137.2,0.001001,0.001008,-0.003825,0.000567,  15.352
   137.4,0.001001,0.001008,-0.003860,0.000581,  15.350
   137.6,0.000996,0.001008,-0.003938,0.000605,  15.352
   137.8,0.001004,0.001011,-0.004017,0.000554,  15.354
   138.0,0.001001,0.001008,-0.004069,0.000554,  15.358
   138.2,0.000993,0.001011,-0.004113,0.000578,  15.360
   138.4,0.001001,0.001011,-0.004164,0.000527,  15.360
   138.6,0.000995,0.001011,-0.004207,0.000527,  15.357
   138.8,0.000990,0.001013,-0.004233,0.000578,  15.360
   139.0,0.001004,0.001012,-0.004242,0.000554,  15.361
   139.2,0.001010,0.001025,-0.004285,0.000554,  15.361
   139.4,0.001006,0.001030,-0.004319,0.000591,  15.364
   139.6,0.001016,0.001031,-0.004336,0.000567,  15.371
   139.8,0.001016,0.001046,-0.004361,0.000567,  15.369
   140.0,0.001012,0.001049,-0.004361,0.000591,  15.372
   140.2,0.001015,0.001046,-0.004344,0.000554,  15.375
   140.4,0.001009,0.001045,-0.004325,0.000554,  15.374
   140.6,0.001001,0.001050,-0.004299,0.000591,  15.379
   140.8,0.001004,0.001051,-0.004263,0.000554,  15.382
   141.0,0.001012,0.001056,-0.004271,0.000554,  15.383
   141.2,0.001012,0.001061,-0.004322,0.000591,  15.387
   141.4,0.001015,0.001060,-0.004393,0.000554,  15.387
   141.6,0.001018,0.001068,-0.004427,0.000567,  15.390
   141.8,0.001021,0.001073,-0.004486,0.000605,  15.393
   142.0,0.001024,0.001072,-0.004530,0.000567,  15.391
   142.2,0.001027,0.001085,-0.004547,0.000581,  15.396
   142.4,0.001030,0.001089,-0.004555,0.000605,  15.395
   142.6,0.001029,0.001096,-0.004547,0.000567,  15.396
   142.8,0.001032,0.001103,-0.004557,0.000581,  15.399
   143.0,0.001046,0.001107,-0.004625,0.000605,  15.405
   143.2,0.001045,0.001117,-0.004720,0.000605,  15.407
   143.4,0.001048,0.001120,-0.004720,0.000581,  15.410
   143.6,0.001055,0.001121,-0.004711,0.000581,  15.413
   143.8,0.001054,0.001132,-0.004702,0.000605,  15.420
   144.0,0.001057,0.001132,-0.004736,0.000581,  15.420
   144.2,0.001057,0.001136,-0.004770,0.000618,  15.421
   144.4,0.001063,0.001144,-0.004848,0.000618,  15.429
   144.6,0.001073,0.001154,-0.004928,0.000581,  15.431
   144.8,0.001086,0.001161,-0.004928,0.000581,  15.434
   145.0,0.001085,0.001163,-0.004901,0.000618,  15.434
   145.2,0.001088,0.001178,-0.004858,0.000581,  15.442
   145.4,0.001102,0.001185,-0.004831,0.000581,  15.443
   145.6,0.001104,0.001187,-0.004830,0.000618,  15.450
   145.8,0.001107,0.001195,-0.004820,0.000581,  15.455
   146.0,0.001117,0.001199,-0.004802,0.000581,  15.456
   146.2,0.001113,0.001209,-0.004775,0.000618,  15.459
   146.4,0.001119,0.001208,-0.004758,0.000581,  15.467
   146.6,0.001119,0.001213,-0.004819,0.000581,  15.469
   146.8,0.001125,0.001222,-0.004917,0.000618,  15.478
   147.0,0.001131,0.001230,-0.005067,0.000581,  15.481
   147.2,0.001145,0.001239,-0.005057,0.000581,  15.485
   147.4,0.001150,0.001250,-0.004970,0.000618,  15.493
   147.6,0.001162,0.001270,-0.004864,0.000594,  15.494
   147.8,0.001185,0.001281,-0.004898,0.000607,  15.501
   148.0,0.001196,0.001294,-0.004994,0.000658,  15.507
   148.2,0.001215,0.001319,-0.005142,0.000648,  15.512
   148.4,0.001244,0.001341,-0.005167,0.000661,  15.514
   148.6,0.001255,0.001355,-0.005192,0.000712,  15.521
   148.8,0.001271,0.001374,-0.005182,0.000688,  15.525
   149.0,0.001283,0.001394,-0.005173,0.000701,  15.531
   149.2,0.001299,0.001405,-0.005206,0.000739,  15.535
   149.4,0.001311,0.001427,-0.005198,0.000701,  15.542
   149.6,0.001324,0.001447,-0.005198,0.000715,  15.551
   149.8,0.001333,0.001463,-0.005232,0.000752,  15.558
   150.0,0.001341,0.001480,-0.005276,0.000728,  15.558
   150.2,0.001347,0.001493,-0.005276,0.000728,  15.566
   150.4,0.001356,0.001507,-0.005249,0.000766,  15.570
   150.6,0.001361,0.001525,-0.005249,0.000741,  15.580
   150.8,0.001378,0.001536,-0.005214,0.000741,  15.583
   151.0,0.001387,0.001548,-0.005161,0.000741,  15.590
   151.2,0.001400,0.001568,-0.005091,0.000755,  15.598
   151.4,0.001409,0.001582,-0.005100,0.000755,  15.600
   151.6,0.001422,0.001596,-0.005178,0.000741,  15.610
   151.8,0.001441,0.001614,-0.005284,0.000741,  15.615
   152.0,0.001448,0.001634,-0.005337,0.000741,  15.619
   152.2,0.001457,0.001651,-0.005372,0.000741,  15.628
   152.4,0.001477,0.001662,-0.005442,0.000741,  15.630
   152.6,0.001486,0.001687,-0.005469,0.000741,  15.638
   152.8,0.001491,0.001701,-0.005469,0.000741,  15.643
   153.0,0.001506,0.001717,-0.005444,0.000741,  15.651
   153.2,0.001516,0.001734,-0.005410,0.000755,  15.659
   153.4,0.001528,0.001748,-0.005383,0.000755,  15.664
   153.6,0.001541,0.001775,-0.005340,0.000741,  15.669
   153.8,0.001550,0.001791,-0.005279,0.000755,  15.673
   154.0,0.001556,0.001805,-0.005235,0.000755,  15.680
   154.2,0.001565,0.001827,-0.005218,0.000741,  15.688
   154.4,0.001575,0.001842,-0.005201,0.000755,  15.693
   154.6,0.001584,0.001856,-0.005131,0.000755,  15.698
   154.8,0.001596,0.001873,-0.005061,0.000755,  15.701
   155.0,0.001612,0.001885,-0.004981,0.000768,  15.706
   155.2,0.001627,0.001899,-0.005016,0.000755,  15.712
   155.4,0.001640,0.001918,-0.005070,0.000755,  15.716
   155.6,0.001652,0.001940,-0.005202,0.000768,  15.723
   155.8,0.001662,0.001960,-0.005202,0.000755,  15.729
   156.0,0.001674,0.001977,-0.005160,0.000755,  15.735
   156.2,0.001680,0.001993,-0.005100,0.000768,  15.740
   156.4,0.001683,0.002007,-0.005064,0.000755,  15.742
   156.6,0.001689,0.002019,-0.004986,0.000741,  15.751
   156.8,0.001693,0.002041,-0.004925,0.000741,  15.756
   157.0,0.001693,0.002053,-0.005335,0.000741,  15.762
   157.2,0.001693,0.002056,-0.005962,0.000715,  15.769
   157.4,0.001693,0.002070,-0.006823,0.000715,  15.770
   157.6,0.001693,0.002077,-0.006788,0.000715,  15.779
   157.8,0.001696,0.002083,-0.006441,0.000701,  15.784
   158.0,0.001696,0.002095,-0.005755,0.000701,  15.787
   158.2,0.001696,0.002113,-0.005554,0.000701,  15.795
   158.4,0.001699,0.002127,-0.005425,0.000688,  15.800
   158.6,0.001702,0.002130,-0.005373,0.000674,  15.806
   158.8,0.001698,0.002142,-0.005243,0.000674,  15.812
   159.0,0.001705,0.002154,-0.005163,0.000661,  15.815
   159.2,0.001708,0.002161,-0.005076,0.000648,  15.825
   159.4,0.001705,0.002177,-0.005050,0.000634,  15.827
   159.6,0.001716,0.002191,-0.005050,0.000672,  15.835
   159.8,0.001714,0.002202,-0.005102,0.000648,  15.840
   160.0,0.001724,0.002221,-0.005050,0.000634,  15.842
   160.2,0.001740,0.002237,-0.004978,0.000672,  15.849
   160.4,0.001742,0.002251,-0.004855,0.000672,  15.857
   160.6,0.001752,0.002265,-0.004810,0.000648,  15.863
   160.8,0.001765,0.002276,-0.004774,0.000634,  15.871
   161.0,0.001764,0.002293,-0.004747,0.000672,  15.875
   161.2,0.001767,0.002310,-0.004791,0.000634,  15.878
   161.4,0.001778,0.002319,-0.004903,0.000658,  15.883
   161.6,0.001779,0.002336,-0.005061,0.000658,  15.891
   161.8,0.001783,0.002350,-0.005139,0.000634,  15.896
   162.0,0.001799,0.002359,-0.005156,0.000621,  15.901
   162.2,0.001804,0.002382,-0.005198,0.000645,  15.905
   162.4,0.001810,0.002399,-0.005198,0.000621,  15.915
   162.6,0.001827,0.002406,-0.005257,0.000621,  15.918
   162.8,0.001829,0.002426,-0.005309,0.000658,  15.923
   163.0,0.001835,0.002440,-0.005360,0.000634,  15.928
   163.2,0.001846,0.002451,-0.005455,0.000634,  15.935
   163.4,0.001848,0.002473,-0.005594,0.000658,  15.939
   163.6,0.001860,0.002499,-0.005767,0.000634,  15.944
   163.8,0.001874,0.002511,-0.005888,0.000634,  15.954
   164.0,0.001873,0.002526,-0.006068,0.000658,  15.960
   164.2,0.001882,0.002531,-0.006241,0.000621,  15.966
   164.4,0.001896,0.002538,-0.006404,0.000607,  15.971
   164.6,0.001894,0.002550,-0.006577,0.000618,  15.976
   164.8,0.001900,0.002566,-0.006741,0.000594,  15.983
   165.0,0.001917,0.002577,-0.006825,0.000594,  15.985
   165.2,0.001922,0.002592,-0.006849,0.000645,  15.989
   165.4,0.001932,0.002606,-0.006827,0.000621,  15.992
   165.6,0.001948,0.002628,-0.007024,0.000607,  16.002
   165.8,0.001953,0.002639,-0.007335,0.000645,  16.005
   166.0,0.001959,0.002656,-0.007723,0.000621,  16.015
   166.2,0.001973,0.002673,-0.007841,0.000607,  16.018
   166.4,0.001978,0.002684,-0.007865,0.000645,  16.020
   166.6,0.001984,0.002701,-0.007811,0.000621,  16.028
   166.8,0.001998,0.002716,-0.007868,0.000607,  16.034
   167.0,0.002004,0.002733,-0.007935,0.000645,  16.044
   167.2,0.002013,0.002745,-0.008028,0.000621,  16.044
   167.4,0.002017,0.002762,-0.008129,0.000607,  16.051
   167.6,0.002023,0.002779,-0.008247,0.000645,  16.056
   167.8,0.002032,0.002790,-0.008391,0.000621,  16.058
   168.0,0.002038,0.002810,-0.008578,0.000607,  16.067
   168.2,0.002045,0.002824,-0.008775,0.000645,  16.074
   168.4,0.002046,0.002837,-0.009006,0.000621,  16.075
   168.6,0.002056,0.002854,-0.009218,0.000607,  16.080
   168.8,0.002072,0.002863,-0.009388,0.000645,  16.086
   169.0,0.002071,0.002881,-0.009558,0.000645,  16.095
   169.2,0.002085,0.002893,-0.009788,0.000607,  16.102
   169.4,0.002095,0.002902,-0.010044,0.000607,  16.109
   169.6,0.002097,0.002922,-0.010359,0.000645,  16.115
   169.8,0.002111,0.002939,-0.010581,0.000607,  16.118
   170.0,0.002120,0.002951,-0.010776,0.000645,  16.122
   170.2,0.002125,0.002971,-0.010964,0.000645,  16.129
   170.4,0.002142,0.002987,-0.011125,0.000621,  16.135
   170.6,0.002151,0.003002,-0.011568,0.000607,  16.137
   170.8,0.002163,0.003015,-0.012130,0.000645,  16.145
   171.0,0.002185,0.003034,-0.012785,0.000621,  16.153
   171.2,0.002204,0.003055,-0.013037,0.000634,  16.156
   171.4,0.002218,0.003076,-0.013153,0.000685,  16.161
   171.6,0.002245,0.003103,-0.013123,0.000674,  16.165
   171.8,0.002266,0.003129,-0.013282,0.000688,  16.172
   172.0,0.002277,0.003150,-0.013482,0.000725,  16.177
   172.2,0.002296,0.003177,-0.013701,0.000701,  16.185
   172.4,0.002315,0.003196,-0.013885,0.000715,  16.191
   172.6,0.002326,0.003213,-0.014069,0.000739,  16.193
   172.8,0.002341,0.003225,-0.014270,0.000701,  16.196
   173.0,0.002361,0.003235,-0.014505,0.000715,  16.204
   173.2,0.002373,0.003251,-0.014766,0.000752,  16.211
   173.4,0.002388,0.003268,-0.015044,0.000728,  16.211
   173.6,0.002401,0.003285,-0.015211,0.000728,  16.218
   173.8,0.002416,0.003301,-0.015335,0.000766,  16.219
   174.0,0.002432,0.003318,-0.015417,0.000741,  16.226
   174.2,0.002444,0.003337,-0.015602,0.000741,  16.227
   174.4,0.002460,0.003353,-0.015803,0.000792,  16.231
   174.6,0.002472,0.003372,-0.016055,0.000768,  16.243
   174.8,0.002489,0.003389,-0.016146,0.000755,  16.244
   175.0,0.002494,0.003401,-0.016220,0.000792,  16.251
   175.2,0.002514,0.003417,-0.016242,0.000768,  16.255
   175.4,0.002527,0.003432,-0.016282,0.000768,  16.262
   175.6,0.002529,0.003439,-0.016315,0.000806,  16.261
   175.8,0.002549,0.003451,-0.016356,0.000782,  16.267
   176.0,0.002558,0.003466,-0.016431,0.000782,  16.275
   176.2,0.002568,0.003476,-0.016507,0.000806,  16.280
   176.4,0.002570,0.003483,-0.016583,0.000782,  16.280
   176.6,0.002576,0.003501,-0.016609,0.000782,  16.284
   176.8,0.002582,0.003508,-0.016634,0.000806,  16.290
   177.0,0.002591,0.003512,-0.016627,0.000782,  16.292
   177.2,0.002594,0.003519,-0.016569,0.000782,  16.295
   177.4,0.002593,0.003521,-0.016502,0.000819,  16.301
   177.6,0.002599,0.003527,-0.016426,0.000782,  16.304
   177.8,0.002606,0.003531,-0.016765,0.000782,  16.311
   178.0,0.002613,0.003531,-0.017332,0.000819,  16.312
   178.2,0.002609,0.003531,-0.018100,0.000819,  16.315
   178.4,0.002612,0.003533,-0.017983,0.000795,  16.320
   178.6,0.002612,0.003532,-0.017514,0.000782,  16.322
   178.8,0.002615,0.003537,-0.016732,0.000819,  16.324
   179.0,0.002615,0.003536,-0.016363,0.000782,  16.326
   179.2,0.002615,0.003531,-0.016026,0.000806,  16.335
   179.4,0.002616,0.003532,-0.015749,0.000806,  16.336
   179.6,0.002611,0.003527,-0.015513,0.000782,  16.340
   179.8,0.002618,0.003522,-0.015160,0.000792,  16.341
   180.0,0.002607,0.003515,-0.014824,0.000803,  16.346
   180.2,0.002594,0.003511,-0.014463,0.000766,  16.351
   180.4,0.002583,0.003504,-0.014118,0.000790,  16.351
   180.6,0.002570,0.003488,-0.013748,0.000776,  16.352
   180.8,0.002560,0.003484,-0.013412,0.000739,  16.359
   181.0,0.002548,0.003472,-0.013023,0.000763,  16.362
   181.2,0.002531,0.003455,-0.012609,0.000750,  16.361
   181.4,0.002519,0.003446,-0.012169,0.000699,  16.367
   181.6,0.002514,0.003436,-0.011788,0.000723,  16.371
   181.8,0.002494,0.003421,-0.011400,0.000709,  16.373
   182.0,0.002481,0.003411,-0.011044,0.000672,  16.374
   182.2,0.002473,0.003396,-0.010672,0.000696,  16.379
   182.4,0.002456,0.003381,-0.010291,0.000696,  16.381
   182.6,0.002447,0.003368,-0.009961,0.000658,  16.381
   182.8,0.002445,0.003352,-0.009553,0.000683,  16.387
   183.0,0.002428,0.003334,-0.009102,0.000656,  16.382
   183.2,0.002419,0.003322,-0.008641,0.000618,  16.389
   183.4,0.002404,0.003305,-0.008233,0.000656,  16.389
   183.6,0.002394,0.003289,-0.007867,0.000656,  16.392
   183.8,0.002388,0.003277,-0.007502,0.000618,  16.396
   184.0,0.002376,0.003268,-0.007066,0.000656,  16.398
   184.2,0.002369,0.003248,-0.006630,0.000642,  16.401
   184.4,0.002369,0.003239,-0.006142,0.000591,  16.402
   184.6,0.002356,0.003231,-0.005695,0.000629,  16.404
   184.8,0.002363,0.003211,-0.005240,0.000616,  16.402
   185.0,0.002357,0.003200,-0.004794,0.000565,  16.408
   185.2,0.002351,0.003191,-0.004714,0.000589,  16.408
   185.4,0.002341,0.003176,-0.004826,0.000589,  16.408
   185.6,0.002335,0.003166,-0.005139,0.000565,  16.414
   185.8,0.002332,0.003151,-0.004736,0.000589,  16.411
   186.0,0.002320,0.003136,-0.004089,0.000589,  16.414
   186.2,0.002317,0.003132,-0.003186,0.000565,  16.417
   186.4,0.002314,0.003120,-0.002606,0.000589,  16.412
   186.6,0.002318,0.003100,-0.002053,0.000589,  16.415
   186.8,0.002304,0.003091,-0.001559,0.000589,  16.411
   187.0,0.002301,0.003082,-0.001037,0.000551,  16.413
   187.2,0.002299,0.003065,-0.000498,0.000551,  16.410
   187.4,0.002286,0.003058,0.000007,0.000551,  16.411
   187.6,0.002276,0.003052,0.000398,0.000514,  16.410
   187.8,0.002274,0.003036,0.000738,0.000565,  16.410
   188.0,0.002261,0.003024,0.001032,0.000551,  16.407
   188.2,0.002251,0.003010,0.001239,0.000527,  16.405
   188.4,0.002250,0.002993,0.001649,0.000514,  16.406
   188.6,0.002236,0.002981,0.002094,0.000551,  16.404
   188.8,0.002230,0.002970,0.002567,0.000527,  16.402
   189.0,0.002228,0.002952,0.003006,0.000500,  16.398
   189.2,0.002217,0.002944,0.003435,0.000524,  16.396
   189.4,0.002211,0.002929,0.003865,0.000487,  16.391
   189.6,0.002209,0.002917,0.004233,0.000487,  16.388
   189.8,0.002195,0.002905,0.004557,0.000511,  16.380
   190.0,0.002197,0.002891,0.004886,0.000474,  16.377
   190.2,0.002189,0.002879,0.005337,0.000474,  16.375
   190.4,0.002172,0.002862,0.005860,0.000498,  16.370
   190.6,0.002166,0.002846,0.006430,0.000460,  16.365
   190.8,0.002153,0.002824,0.006847,0.000460,  16.361
   191.0,0.002136,0.002807,0.007209,0.000484,  16.351
   191.2,0.002138,0.002789,0.007482,0.000447,  16.342
   191.4,0.002136,0.002782,0.007773,0.000447,  16.334
   191.6,0.002119,0.002760,0.008018,0.000471,  16.324
   191.8,0.002117,0.002741,0.008211,0.000433,  16.316
   192.0,0.002105,0.002720,0.008504,0.000433,  16.307
   192.2,0.002085,0.002695,0.008815,0.000471,  16.290
   192.4,0.002083,0.002678,0.009146,0.000420,  16.285
   192.6,0.002068,0.002667,0.009359,0.000420,  16.273
   192.8,0.002058,0.002648,0.009550,0.000458,  16.262
   193.0,0.002045,0.002624,0.009660,0.000407,  16.250
   193.2,0.002043,0.002613,0.009909,0.000407,  16.228
   193.4,0.002040,0.002597,0.010185,0.000444,  16.219
   193.6,0.002033,0.002570,0.010464,0.000420,  16.207
   193.8,0.002013,0.002556,0.010632,0.000420,  16.190
   194.0,0.002004,0.002534,0.010754,0.000444,  16.173
   194.2,0.001994,0.002517,0.010795,0.000420,  16.150
   194.4,0.001984,0.002498,0.010965,0.000420,  16.139
   194.6,0.001982,0.002478,0.011146,0.000444,  16.123
   194.8,0.001969,0.002469,0.011344,0.000431,  16.102
   195.0,0.001959,0.002457,0.010931,0.000407,  16.083
   195.2,0.001954,0.002439,0.010237,0.000393,  16.060
   195.4,0.001938,0.002428,0.009236,0.000431,  16.046
   195.6,0.001936,0.002411,0.009262,0.000393,  16.028
   195.8,0.001934,0.002397,0.009668,0.000417,  16.005
   196.0,0.001917,0.002378,0.010456,0.000431,  15.985
   196.2,0.001914,0.002362,0.010747,0.000407,  15.962
   196.4,0.001908,0.002345,0.011010,0.000393,  15.941
   196.6,0.001894,0.002325,0.011174,0.000431,  15.922
   196.8,0.001885,0.002314,0.011311,0.000407,  15.898
   197.0,0.001883,0.002292,0.011210,0.000393,  15.875
   197.2,0.001866,0.002273,0.010936,0.000417,  15.847
   197.4,0.001857,0.002251,0.010543,0.000393,  15.828
   197.6,0.001852,0.002232,0.010560,0.000380,  15.806
   197.8,0.001835,0.002210,0.010725,0.000404,  15.784
   198.0,0.001829,0.002189,0.011016,0.000366,  15.761
   198.2,0.001824,0.002173,0.011097,0.000366,  15.730
   198.4,0.001807,0.002158,0.011117,0.000391,  15.709
   198.6,0.001798,0.002144,0.011089,0.000353,  15.684
   198.8,0.001790,0.002132,0.011144,0.000353,  15.659
   199.0,0.001773,0.002120,0.011174,0.000377,  15.641
   199.2,0.001767,0.002105,0.011212,0.000340,  15.608
   199.4,0.001762,0.002085,0.011232,0.000340,  15.587
   199.6,0.001745,0.002066,0.011191,0.000377,  15.562
   199.8,0.001742,0.002048,0.011165,0.000340,  15.539
   200.0,0.001740,0.002034,0.011159,0.000340,  15.513
   200.2,0.001727,0.002014,0.011126,0.000377,  15.491
   200.4,0.001724,0.001993,0.011102,0.000340,  15.469
   200.6,0.001725,0.001977,0.010988,0.000353,  15.449
   200.8,0.001714,0.001960,0.010843,0.000391,  15.429
   201.0,0.001711,0.001945,0.010643,0.000353,  15.404
   201.2,0.001712,0.001939,0.010546,0.000366,  15.379
   201.4,0.001705,0.001926,0.010495,0.000391,  15.363
   201.6,0.001705,0.001916,0.010452,0.000366,  15.342
   201.8,0.001709,0.001906,0.010337,0.000366,  15.321
   202.0,0.001706,0.001894,0.010177,0.000404,  15.298
   202.2,0.001706,0.001885,0.009990,0.000380,  15.275
   202.4,0.001693,0.001867,0.009875,0.000366,  15.259
   202.6,0.001686,0.001851,0.009769,0.000404,  15.241
   202.8,0.001680,0.001839,0.009688,0.000380,  15.221
   203.0,0.001671,0.001832,0.009627,0.000380,  15.199
   203.2,0.001672,0.001817,0.009548,0.000417,  15.176
   203.4,0.001658,0.001800,0.009487,0.000393,  15.164
   203.6,0.001655,0.001789,0.009416,0.000393,  15.139
   203.8,0.001657,0.001772,0.009317,0.000417,  15.121
   204.0,0.001646,0.001755,0.009201,0.000417,  15.102
   204.2,0.001644,0.001746,0.009067,0.000380,  15.079
   204.4,0.001639,0.001729,0.008913,0.000393,  15.065
   204.6,0.001626,0.001717,0.008706,0.000417,  15.046
   204.8,0.001627,0.001710,0.008582,0.000393,  15.029
   205.0,0.001624,0.001698,0.008537,0.000431,  15.008
   205.2,0.001613,0.001694,0.008468,0.000417,  14.984
   205.4,0.001614,0.001690,0.008451,0.000393,  14.971
   205.6,0.001611,0.001679,0.008417,0.000380,  14.953
   205.8,0.001604,0.001674,0.008400,0.000404,  14.933
   206.0,0.001601,0.001667,0.008366,0.000380,  14.916
   206.2,0.001598,0.001657,0.008132,0.000380,  14.896
   206.4,0.001587,0.001647,0.007755,0.000417,  14.881
   206.6,0.001584,0.001641,0.007278,0.000393,  14.863
   206.8,0.001578,0.001631,0.007200,0.000393,  14.846
   207.0,0.001578,0.001623,0.007264,0.000417,  14.828
   207.2,0.001575,0.001619,0.007464,0.000393,  14.802
   207.4,0.001582,0.001615,0.007439,0.000393,  14.792
   207.6,0.001578,0.001599,0.007376,0.000431,  14.774
   207.8,0.001572,0.001602,0.007241,0.000407,  14.758
   208.0,0.001576,0.001600,0.007233,0.000393,  14.738
   208.2,0.001568,0.001598,0.007245,0.000431,  14.720
   208.4,0.001568,0.001588,0.007274,0.000407,  14.713
   208.6,0.001565,0.001582,0.006996,0.000393,  14.698
   208.8,0.001558,0.001572,0.006565,0.000431,  14.681
   209.0,0.001561,0.001573,0.005955,0.000407,  14.663
   209.2,0.001558,0.001569,0.005428,0.000393,  14.645
   209.4,0.001558,0.001564,0.004864,0.000431,  14.634
   209.6,0.001558,0.001567,0.004265,0.000407,  14.621
   209.8,0.001559,0.001569,0.004374,0.000407,  14.606
   210.0,0.001567,0.001564,0.004804,0.000444,  14.594
   210.2,0.001574,0.001561,0.005558,0.000420,  14.572
   210.4,0.001571,0.001559,0.005765,0.000420,  14.561
   210.6,0.001571,0.001552,0.005865,0.000444,  14.550
   210.8,0.001574,0.001548,0.005837,0.000420,  14.539
   211.0,0.001571,0.001547,0.005947,0.000420,  14.527
   211.2,0.001571,0.001542,0.006091,0.000444,  14.508
   211.4,0.001571,0.001536,0.006218,0.000420,  14.501
   211.6,0.001568,0.001539,0.006328,0.000420,  14.485
   211.8,0.001562,0.001541,0.006430,0.000458,  14.472
   212.0,0.001557,0.001533,0.006537,0.000433,  14.459
   212.2,0.001565,0.001536,0.006565,0.000433,  14.446
   212.4,0.001571,0.001531,0.006522,0.000471,  14.438
   212.6,0.001564,0.001524,0.006467,0.000471,  14.429
   212.8,0.001564,0.001516,0.006432,0.000447,  14.422
   213.0,0.001560,0.001509,0.006369,0.000433,  14.409
   213.2,0.001550,0.001509,0.006297,0.000471,  14.393
   213.4,0.001544,0.001504,0.006279,0.000433,  14.384
   213.6,0.001548,0.001497,0.006254,0.000484,  14.376
   213.8,0.001541,0.001496,0.006263,0.000498,  14.365
   214.0,0.001541,0.001495,0.006273,0.000460,  14.353
   214.2,0.001545,0.001488,0.006255,0.000460,  14.342
   214.4,0.001534,0.001487,0.006230,0.000498,  14.330
   214.6,0.001531,0.001481,0.006203,0.000460,  14.322
   214.8,0.001533,0.001477,0.006032,0.000460,  14.311
   215.0,0.001522,0.001474,0.005790,0.000498,  14.302
   215.2,0.001519,0.001466,0.005458,0.000460,  14.284
   215.4,0.001526,0.001463,0.005443,0.000474,  14.278
   215.6,0.001522,0.001462,0.005577,0.000511,  14.268
   215.8,0.001519,0.001460,0.005804,0.000474,  14.259
   216.0,0.001526,0.001458,0.005823,0.000487,  14.251
   216.2,0.001522,0.001458,0.005806,0.000511,  14.238
   216.4,0.001519,0.001454,0.005769,0.000474,  14.233
   216.6,0.001523,0.001457,0.005804,0.000487,  14.225
   216.8,0.001516,0.001452,0.005823,0.000511,  14.217
   217.0,0.001523,0.001443,0.005851,0.000487,  14.208
   217.2,0.001524,0.001438,0.005878,0.000487,  14.192
   217.4,0.001520,0.001431,0.005905,0.000524,  14.187
   217.6,0.001531,0.001433,0.005905,0.000500,  14.180
   217.8,0.001531,0.001432,0.005880,0.000500,  14.172
   218.0,0.001533,0.001435,0.005817,0.000551,  14.166
   218.2,0.001542,0.001443,0.005737,0.000540,  14.158
   218.4,0.001551,0.001446,0.005694,0.000540,  14.156
   218.6,0.001553,0.001445,0.005649,0.000591,  14.145
   218.8,0.001562,0.001454,0.005614,0.000567,  14.137
   219.0,0.001573,0.001464,0.005589,0.000594,  14.133
   219.2,0.001572,0.001466,0.005563,0.000594,  14.120
   219.4,0.001578,0.001473,0.005555,0.000607,  14.120
   219.6,0.001585,0.001475,0.005368,0.000607,  14.115
   219.8,0.001585,0.001478,0.005081,0.000607,  14.108
   220.0,0.001591,0.001482,0.004688,0.000621,  14.099
   220.2,0.001591,0.001480,0.004635,0.000607,  14.096
   220.4,0.001591,0.001478,0.004689,0.000607,  14.095
   220.6,0.001591,0.001481,0.004851,0.000621,  14.085
   220.8,0.001595,0.001482,0.004925,0.000621,  14.081
   221.0,0.001595,0.001474,0.005007,0.000621,  14.074
   221.2,0.001587,0.001477,0.005124,0.000634,  14.069
   221.4,0.001590,0.001480,0.005143,0.000634,  14.066
   221.6,0.001595,0.001477,0.005116,0.000621,  14.057
   221.8,0.001587,0.001477,0.005061,0.000621,  14.053
   222.0,0.001587,0.001474,0.005009,0.000634,  14.053
   222.2,0.001591,0.001469,0.004937,0.000634,  14.049
   222.4,0.001581,0.001472,0.004855,0.000634,  14.045
   222.6,0.001581,0.001465,0.004820,0.000634,  14.039
   222.8,0.001588,0.001457,0.004802,0.000634,  14.036
   223.0,0.001578,0.001462,0.004822,0.000634,  14.031
   223.2,0.001578,0.001460,0.004831,0.000648,  14.021
   223.4,0.001585,0.001452,0.004841,0.000648,  14.025
   223.6,0.001581,0.001455,0.004823,0.000648,  14.020
   223.8,0.001575,0.001453,0.004806,0.000661,  14.018
   224.0,0.001576,0.001447,0.004833,0.000661,  14.014
   224.2,0.001568,0.001450,0.004825,0.000661,  14.006
   224.4,0.001568,0.001443,0.004810,0.000661,  14.003
   224.6,0.001573,0.001435,0.004765,0.000661,  14.002
   224.8,0.001565,0.001435,0.004685,0.000661,  14.001
   225.0,0.001565,0.001431,0.004568,0.000661,  13.992
   225.2,0.001559,0.001428,0.004488,0.000661,  13.993
   225.4,0.001556,0.001420,0.004426,0.000661,  13.988
   225.6,0.001553,0.001418,0.004371,0.000661,  13.985
   225.8,0.001547,0.001419,0.004364,0.000661,  13.982
   226.0,0.001544,0.001416,0.004391,0.000661,  13.985
   226.2,0.001541,0.001411,0.004420,0.000661,  13.976
   226.4,0.001538,0.001410,0.003840,0.000661,  13.972
   226.6,0.001534,0.001402,0.002967,0.000648,  13.968
   226.8,0.001528,0.001399,0.001775,0.000661,  13.969
   227.0,0.001516,0.001392,0.001768,0.000648,  13.967
   227.2,0.001510,0.001387,0.002177,0.000621,  13.965
   227.4,0.001500,0.001380,0.003005,0.000634,  13.960
   227.6,0.001495,0.001368,0.003184,0.000634,  13.959
   227.8,0.001482,0.001358,0.003279,0.000621,  13.959
   228.0,0.001475,0.001354,0.003198,0.000621,  13.953
   228.2,0.001474,0.001348,0.003279,0.000621,  13.950
   228.4,0.001460,0.001335,0.003376,0.000594,  13.949
   228.6,0.001451,0.001329,0.003475,0.000594,  13.944
   228.8,0.001449,0.001327,0.003557,0.000607,  13.941
   229.0,0.001443,0.001317,0.003611,0.000594,  13.940
   229.2,0.001436,0.001309,0.003665,0.000594,  13.939
   229.4,0.001426,0.001310,0.003684,0.000594,  13.937
   229.6,0.001420,0.001302,0.003720,0.000581,  13.935
   229.8,0.001413,0.001297,0.003702,0.000581,  13.932
   230.0,0.001407,0.001293,0.003766,0.000581,  13.930
   230.2,0.001401,0.001285,0.003883,0.000567,  13.924
   230.4,0.001395,0.001286,0.004019,0.000567,  13.926
   230.6,0.001386,0.001284,0.004038,0.000567,  13.924
   230.8,0.001379,0.001276,0.004011,0.000554,  13.920
   231.0,0.001376,0.001266,0.003948,0.000554,  13.917
   231.2,0.001370,0.001263,0.003913,0.000567,  13.910
   231.4,0.001364,0.001255,0.003842,0.000554,  13.918
   231.6,0.001361,0.001253,0.003752,0.000554,  13.911
   231.8,0.001358,0.001254,0.003566,0.000567,  13.908
   232.0,0.001348,0.001246,0.003342,0.000554,  13.904
   232.2,0.001345,0.001243,0.003057,0.000554,  13.904
   232.4,0.001342,0.001247,0.002951,0.000540,  13.905
   232.6,0.001336,0.001241,0.002923,0.000540,  13.901
   232.8,0.001336,0.001241,0.002958,0.000540,  13.895
   233.0,0.001339,0.001241,0.003038,0.000527,  13.900
   233.2,0.001343,0.001234,0.003067,0.000527,  13.897
   233.4,0.001336,0.001235,0.003139,0.000540,  13.894
   233.6,0.001336,0.001232,0.003212,0.000540,  13.893
   233.8,0.001340,0.001224,0.003266,0.000540,  13.887
   234.0,0.001330,0.001224,0.003294,0.000540,  13.886
   234.2,0.001324,0.001227,0.003303,0.000540,  13.882
   234.4,0.001325,0.001227,0.003350,0.000540,  13.885
   234.6,0.001314,0.001223,0.003431,0.000540,  13.875
   234.8,0.001311,0.001215,0.003522,0.000540,  13.875
   235.0,0.001319,0.001213,0.003497,0.000540,  13.875
   235.2,0.001311,0.001213,0.003443,0.000540,  13.873
   235.4,0.001311,0.001211,0.003351,0.000540,  13.873
   235.6,0.001311,0.001214,0.003342,0.000540,  13.869
   235.8,0.001311,0.001206,0.003315,0.000578,  13.871
   236.0,0.001308,0.001207,0.003280,0.000540,  13.868
   236.2,0.001305,0.001207,0.003245,0.000540,  13.862
   236.4,0.001302,0.001200,0.003218,0.000578,  13.860
   236.6,0.001302,0.001200,0.003173,0.000540,  13.861
   236.8,0.001302,0.001207,0.003173,0.000540,  13.857
   237.0,0.001299,0.001204,0.003175,0.000578,  13.858
   237.2,0.001299,0.001204,0.003202,0.000540,  13.856
   237.4,0.001299,0.001204,0.003184,0.000540,  13.851
   237.6,0.001299,0.001201,0.003149,0.000578,  13.854
   237.8,0.001299,0.001206,0.003105,0.000540,  13.851
   238.0,0.001285,0.001200,0.003097,0.000540,  13.851
   238.2,0.001286,0.001195,0.003097,0.000578,  13.848
   238.4,0.001289,0.001197,0.003107,0.000540,  13.845
   238.6,0.001293,0.001195,0.003079,0.000540,  13.845
   238.8,0.001293,0.001189,0.003025,0.000578,  13.846
   239.0,0.001293,0.001189,0.002919,0.000554,  13.843
   239.2,0.001293,0.001190,0.002909,0.000554,  13.839
   239.4,0.001286,0.001191,0.002891,0.000591,  13.838
   239.6,0.001286,0.001186,0.002901,0.000591,  13.836
   239.8,0.001286,0.001182,0.002856,0.000567,  13.833
   240.0,0.001280,0.001177,0.002767,0.000554,  13.836
   240.2,0.001277,0.001171,0.002676,0.000591,  13.830
   240.4,0.001277,0.001170,0.002632,0.000567,  13.831
   240.6,0.001271,0.001168,0.002597,0.000591,  13.831
   240.8,0.001263,0.001166,0.002587,0.000591,  13.826
   241.0,0.001263,0.001173,0.002587,0.000554,  13.826
   241.2,0.001267,0.001178,0.002634,0.000567,  13.828
   241.4,0.001265,0.001185,0.002707,0.000605,  13.825
   241.6,0.001271,0.001186,0.002815,0.000567,  13.821
   241.8,0.001285,0.001196,0.002800,0.000594,  13.824
   242.0,0.001302,0.001200,0.002757,0.000632,  13.819
   242.2,0.001308,0.001205,0.002693,0.000607,  13.814
   242.4,0.001311,0.001209,0.002685,0.000621,  13.817
   242.6,0.001325,0.001216,0.002697,0.000658,  13.815
   242.8,0.001331,0.001224,0.002743,0.000634,  13.813
   243.0,0.001330,0.001228,0.002735,0.000634,  13.814
   243.2,0.001336,0.001233,0.002735,0.000672,  13.812
   243.4,0.001342,0.001230,0.002718,0.000648,  13.810
   243.6,0.001356,0.001236,0.002460,0.000648,  13.809
   243.8,0.001358,0.001236,0.002017,0.000685,  13.805
   244.0,0.001361,0.001236,0.001457,0.000661,  13.807
   244.2,0.001368,0.001241,0.001439,0.000661,  13.804
   244.4,0.001364,0.001249,0.001609,0.000685,  13.803
   244.6,0.001367,0.001251,0.001957,0.000661,  13.803
   244.8,0.001371,0.001251,0.002001,0.000661,  13.802
   245.0,0.001364,0.001253,0.001999,0.000699,  13.803
   245.2,0.001364,0.001248,0.001918,0.000661,  13.799
   245.4,0.001368,0.001251,0.001688,0.000661,  13.796
   245.6,0.001361,0.001248,0.001377,0.000699,  13.798
   245.8,0.001364,0.001248,0.000978,0.000674,  13.793
   246.0,0.001371,0.001254,0.001023,0.000674,  13.793
   246.2,0.001364,0.001248,0.001236,0.000712,  13.793
   246.4,0.001364,0.001246,0.001628,0.000688,  13.797
   246.6,0.001368,0.001244,0.001734,0.000688,  13.794
   246.8,0.001368,0.001239,0.001779,0.000712,  13.789
   247.0,0.001371,0.001249,0.001752,0.000674,  13.789
   247.2,0.001371,0.001254,0.001833,0.000674,  13.785
   247.4,0.001371,0.001248,0.001906,0.000712,  13.782
   247.6,0.001371,0.001255,0.002013,0.000674,  13.788
   247.8,0.001371,0.001255,0.002013,0.000674,  13.786
   248.0,0.001371,0.001252,0.001968,0.000712,  13.783
   248.2,0.001361,0.001254,0.001870,0.000674,  13.778
   248.4,0.001368,0.001255,0.001763,0.000674,  13.779
   248.6,0.001377,0.001252,0.001613,0.000712,  13.782
   248.8,0.001369,0.001247,0.001392,0.000712,  13.774
   249.0,0.001359,0.001244,0.001394,0.000674,  13.775
   249.2,0.001359,0.001245,0.001483,0.000688,  13.778
   249.4,0.001351,0.001240,0.001626,0.000712,  13.775
   249.6,0.001348,0.001239,0.001643,0.000674,  13.770
   249.8,0.001342,0.001237,0.001651,0.000712,  13.769
   250.0,0.001339,0.001241,0.001606,0.000712,  13.773
   250.2,0.001336,0.001232,0.001525,0.000661,  13.770
   250.4,0.001334,0.001224,0.001606,0.000661,  13.771
   250.6,0.001324,0.001222,0.001722,0.000699,  13.769
   250.8,0.001314,0.001216,0.001867,0.000648,  13.761
   251.0,0.001305,0.001208,0.001921,0.000634,  13.767
   251.2,0.001299,0.001205,0.001973,0.000672,  13.761
   251.4,0.001293,0.001197,0.001964,0.000648,  13.763
   251.6,0.001280,0.001189,0.001857,0.000621,  13.760
   251.8,0.001274,0.001185,0.001662,0.000645,  13.761
   252.0,0.001268,0.001185,0.001404,0.000607,  13.763
   252.2,0.001262,0.001181,0.001404,0.000594,  13.760
   252.4,0.001255,0.001173,0.001467,0.000618,  13.761
   252.6,0.001246,0.001166,0.001600,0.000581,  13.760
   252.8,0.001240,0.001161,0.001361,0.000581,  13.759
   253.0,0.001234,0.001154,0.000996,0.000618,  13.757
   253.2,0.001224,0.001149,0.000438,0.000581,  13.757
   253.4,0.001218,0.001147,0.000191,0.000581,  13.756
   253.6,0.001215,0.001142,0.000032,0.000605,  13.751
   253.8,0.001215,0.001138,-0.000074,0.000567,  13.754
   254.0,0.001215,0.001136,0.000007,0.000581,  13.748
   254.2,0.001218,0.001137,0.000218,0.000605,  13.750
   254.4,0.001212,0.001137,0.000553,0.000567,  13.750
   254.6,0.001213,0.001133,0.000740,0.000567,  13.750
   254.8,0.001206,0.001125,0.000927,0.000591,  13.750
   255.0,0.001200,0.001125,0.001087,0.000554,  13.746
   255.2,0.001201,0.001123,0.001256,0.000554,  13.749
   255.4,0.001190,0.001118,0.001417,0.000591,  13.748
   255.6,0.001190,0.001120,0.001559,0.000540,  13.747
   255.8,0.001187,0.001114,0.001507,0.000540,  13.747
   256.0,0.001187,0.001112,0.001356,0.000578,  13.745
   256.2,0.001184,0.001110,0.001098,0.000540,  13.743
   256.4,0.001184,0.001110,0.001089,0.000540,  13.738
   256.6,0.001185,0.001105,0.001108,0.000591,  13.741
   256.8,0.001185,0.001107,0.001214,0.000567,  13.739
   257.0,0.001185,0.001110,0.001303,0.000567,  13.741
   257.2,0.001178,0.001110,0.001393,0.000591,  13.738
   257.4,0.001181,0.001113,0.001526,0.000554,  13.738
   257.6,0.001181,0.001111,0.001509,0.000554,  13.734
   257.8,0.001184,0.001106,0.001445,0.000591,  13.735
   258.0,0.001187,0.001103,0.001310,0.000540,  13.733
   258.2,0.001184,0.001106,0.001283,0.000540,  13.736
   258.4,0.001181,0.001099,0.001291,0.000578,  13.734
   258.6,0.001181,0.001096,0.001282,0.000578,  13.736
   258.8,0.001181,0.001099,0.001326,0.000540,  13.734
   259.0,0.001175,0.001096,0.001372,0.000554,  13.730
   259.2,0.001175,0.001090,0.001444,0.000578,  13.730
   259.4,0.001178,0.001096,0.001498,0.000554,  13.729
   259.6,0.001182,0.001099,0.001569,0.000591,  13.729
   259.8,0.001178,0.001099,0.001623,0.000578,  13.731
   260.0,0.001178,0.001102,0.001660,0.000540,  13.726
   260.2,0.001185,0.001105,0.001687,0.000540,  13.727
   260.4,0.001178,0.001107,0.001694,0.000578,  13.728
   260.6,0.001175,0.001107,0.001660,0.000540,  13.725
   260.8,0.001172,0.001103,0.001385,0.000540,  13.729
   261.0,0.001172,0.001101,0.000976,0.000578,  13.724
   261.2,0.001172,0.001102,0.000427,0.000540,  13.726
   261.4,0.001169,0.001107,0.000410,0.000540,  13.725
   261.6,0.001169,0.001107,0.000577,0.000578,  13.723
   261.8,0.001172,0.001107,0.000922,0.000540,  13.723
   262.0,0.001169,0.001107,0.001021,0.000540,  13.723
   262.2,0.001169,0.001113,0.001100,0.000578,  13.721
   262.4,0.001172,0.001107,0.001125,0.000554,  13.722
   262.6,0.001169,0.001110,0.001169,0.000554,  13.720
   262.8,0.001169,0.001108,0.001196,0.000591,  13.717
   263.0,0.001172,0.001106,0.001204,0.000554,  13.717
   263.2,0.001169,0.001105,0.001310,0.000554,  13.717
   263.4,0.001169,0.001102,0.001436,0.000578,  13.717
   263.6,0.001172,0.001101,0.001561,0.000527,  13.720
   263.8,0.001169,0.001106,0.001633,0.000527,  13.718
   264.0,0.001172,0.001102,0.001687,0.000578,  13.714
   264.2,0.001178,0.001102,0.001704,0.000540,  13.715
   264.4,0.001184,0.001108,0.001723,0.000540,  13.717
   264.6,0.001193,0.001110,0.001741,0.000578,  13.718
   264.8,0.001196,0.001117,0.001741,0.000554,  13.716
   265.0,0.001206,0.001130,0.001706,0.000567,  13.715
   265.2,0.001212,0.001130,0.001644,0.000618,  13.715
   265.4,0.001224,0.001140,0.001538,0.000607,  13.714
   265.6,0.001223,0.001147,0.001503,0.000621,  13.716
   265.8,0.001237,0.001152,0.001476,0.000658,  13.713
   266.0,0.001246,0.001160,0.001433,0.000634,  13.712
   266.2,0.001252,0.001166,0.001435,0.000648,  13.713
   266.4,0.001258,0.001168,0.001479,0.000685,  13.712
   266.6,0.001265,0.001179,0.001533,0.000661,  13.711
   266.8,0.001271,0.001178,0.001489,0.000661,  13.711
   267.0,0.001271,0.001177,0.001390,0.000699,  13.712
   267.2,0.001277,0.001183,0.001238,0.000661,  13.710
   267.4,0.001280,0.001183,0.000954,0.000661,  13.712
   267.6,0.001280,0.001182,0.000600,0.000699,  13.712
   267.8,0.001283,0.001187,0.000149,0.000699,  13.713
   268.0,0.001286,0.001189,0.000044,0.000661,  13.713
   268.2,0.001291,0.001187,0.000070,0.000674,  13.708
   268.4,0.001283,0.001185,0.000238,0.000712,  13.711
   268.6,0.001291,0.001192,0.000538,0.000674,  13.710
   268.8,0.001298,0.001191,0.000617,0.000712,  13.710
   269.0,0.001291,0.001188,0.000662,0.000712,  13.713
   269.2,0.001291,0.001198,0.000696,0.000674,  13.710
   269.4,0.001291,0.001197,0.000733,0.000674,  13.708
   269.6,0.001286,0.001194,0.000777,0.000712,  13.706
   269.8,0.001286,0.001194,0.000829,0.000674,  13.706
   270.0,0.001297,0.001191,0.000839,0.000674,  13.709
   270.2,0.001293,0.001194,0.000804,0.000712,  13.706
   270.4,0.001289,0.001203,0.000768,0.000674,  13.706
   270.6,0.001297,0.001205,0.000829,0.000674,  13.709
   270.8,0.001293,0.001202,0.000910,0.000712,  13.710
   271.0,0.001289,0.001201,0.001001,0.000674,  13.712
   271.2,0.001297,0.001204,0.000902,0.000674,  13.708
   271.4,0.001293,0.001200,0.000690,0.000712,  13.709
   271.6,0.001289,0.001203,0.000380,0.000674,  13.710
   271.8,0.001297,0.001203,0.000380,0.000674,  13.709
   272.0,0.001289,0.001200,0.000469,0.000712,  13.707
   272.2,0.001297,0.001200,0.000671,0.000674,  13.710
   272.4,0.001301,0.001200,0.000654,0.000674,  13.707
   272.6,0.001294,0.001197,0.000548,0.000712,  13.702
   272.8,0.001294,0.001194,0.000355,0.000674,  13.707
   273.0,0.001291,0.001197,0.000409,0.000674,  13.708
   273.2,0.001277,0.001197,0.000507,0.000712,  13.706
   273.4,0.001283,0.001189,0.000675,0.000661,  13.708
   273.6,0.001285,0.001187,0.000782,0.000685,  13.706
   273.8,0.001271,0.001185,0.000915,0.000709,  13.707
   274.0,0.001268,0.001176,0.001031,0.000672,  13.702
   274.2,0.001265,0.001169,0.001120,0.000658,  13.704
   274.4,0.001262,0.001168,0.001164,0.000672,  13.704
   274.6,0.001255,0.001163,0.001199,0.000648,  13.703
   274.8,0.001259,0.001155,0.001154,0.000634,  13.703
   275.0,0.001249,0.001153,0.001054,0.000672,  13.707
   275.2,0.001245,0.001148,0.000893,0.000648,  13.704
   275.4,0.001236,0.001141,0.000858,0.000634,  13.703
   275.6,0.001230,0.001136,0.000883,0.000658,  13.703
   275.8,0.001219,0.001131,0.000945,0.000621,  13.701
   276.0,0.001216,0.001126,0.000981,0.000621,  13.704
   276.2,0.001203,0.001122,0.001026,0.000632,  13.704
   276.4,0.001200,0.001120,0.001080,0.000632,  13.705
   276.6,0.001193,0.001118,0.001151,0.000594,  13.702
   276.8,0.001192,0.001110,0.001232,0.000594,  13.704
   277.0,0.001181,0.001108,0.001313,0.000632,  13.700
   277.2,0.001175,0.001103,0.001357,0.000581,  13.697
   277.4,0.001176,0.001092,0.001357,0.000618,  13.699
   277.6,0.001166,0.001092,0.001305,0.000618,  13.698
   277.8,0.001166,0.001095,0.001216,0.000581,  13.697
   278.0,0.001167,0.001097,0.001093,0.000581,  13.697
   278.2,0.001159,0.001092,0.000898,0.000605,  13.701
   278.4,0.001156,0.001095,0.000694,0.000567,  13.701
   278.6,0.001161,0.001095,0.000711,0.000605,  13.699
   278.8,0.001156,0.001093,0.000790,0.000629,  13.698
   279.0,0.001153,0.001083,0.000906,0.000591,  13.697
   279.2,0.001157,0.001075,0.000967,0.000591,  13.697
   279.4,0.001150,0.001069,0.001004,0.000591,  13.698
   279.6,0.001147,0.001072,0.001056,0.000554,  13.694
   279.8,0.001148,0.001070,0.001047,0.000554,  13.697
   280.0,0.001141,0.001064,0.000975,0.000591,  13.696
   280.2,0.001147,0.001070,0.000885,0.000554,  13.696
   280.4,0.001147,0.001075,0.000939,0.000567,  13.698
   280.6,0.001147,0.001072,0.001037,0.000605,  13.697
   280.8,0.001150,0.001081,0.001172,0.000567,  13.694
   281.0,0.001154,0.001081,0.001181,0.000581,  13.691
   281.2,0.001147,0.001083,0.001145,0.000605,  13.697
   281.4,0.001147,0.001083,0.001047,0.000567,  13.696
   281.6,0.001148,0.001081,0.001056,0.000581,  13.699
   281.8,0.001141,0.001081,0.001083,0.000605,  13.697
   282.0,0.001141,0.001079,0.001102,0.000567,  13.694
   282.2,0.001145,0.001077,0.001112,0.000581,  13.688
   282.4,0.001138,0.001069,0.001137,0.000605,  13.691
   282.6,0.001141,0.001078,0.001110,0.000567,  13.690
   282.8,0.001148,0.001084,0.001120,0.000581,  13.694
   283.0,0.001138,0.001078,0.001120,0.000605,  13.691
   283.2,0.001138,0.001078,0.001127,0.000567,  13.690
   283.4,0.001139,0.001081,0.001110,0.000581,  13.690
   283.6,0.001136,0.001078,0.001066,0.000605,  13.689
   283.8,0.001128,0.001072,0.001012,0.000567,  13.688
   284.0,0.001128,0.001070,0.001039,0.000581,  13.693
   284.2,0.001121,0.001062,0.001075,0.000605,  13.690
   284.4,0.001113,0.001060,0.001147,0.000567,  13.691
   284.6,0.001118,0.001063,0.001120,0.000567,  13.690
   284.8,0.001121,0.001057,0.001012,0.000591,  13.689
   285.0,0.001127,0.001057,0.000885,0.000554,  13.685
   285.2,0.001130,0.001062,0.000867,0.000554,  13.687
   285.4,0.001133,0.001061,0.000850,0.000591,  13.684
   285.6,0.001133,0.001060,0.000877,0.000554,  13.688
   285.8,0.001133,0.001060,0.000833,0.000554,  13.685
   286.0,0.001127,0.001059,0.000769,0.000591,  13.688
   286.2,0.001124,0.001051,0.000671,0.000591,  13.682
   286.4,0.001124,0.001052,0.000600,0.000567,  13.689
   286.6,0.001124,0.001054,0.000469,0.000554,  13.685
   286.8,0.001127,0.001052,0.000345,0.000591,  13.687
   287.0,0.001121,0.001057,0.000372,0.000567,  13.687
   287.2,0.001115,0.001057,0.000470,0.000591,  13.682
   287.4,0.001118,0.001055,0.000595,0.000591,  13.682
   287.6,0.001115,0.001058,0.000817,0.000554,  13.686
   287.8,0.001115,0.001058,0.000915,0.000554,  13.687
   288.0,0.001128,0.001060,0.000977,0.000591,  13.687
   288.2,0.001135,0.001066,0.000996,0.000554,  13.684
   288.4,0.001144,0.001073,0.000988,0.000581,  13.684
   288.6,0.001164,0.001083,0.000953,0.000632,  13.684
   288.8,0.001173,0.001092,0.000882,0.000607,  13.686
   289.0,0.001178,0.001099,0.000855,0.000621,  13.685
   289.2,0.001187,0.001104,0.000793,0.000658,  13.688
   289.4,0.001193,0.001101,0.000722,0.000634,  13.684
   289.6,0.001196,0.001109,0.000767,0.000648,  13.683
   289.8,0.001203,0.001111,0.000813,0.000648,  13.686
   290.0,0.001209,0.001114,0.000886,0.000661,  13.689
   290.2,0.001212,0.001119,0.000860,0.000661,  13.688
   290.4,0.001215,0.001124,0.000816,0.000661,  13.685
   290.6,0.001215,0.001123,0.000726,0.000661,  13.690
   290.8,0.001218,0.001123,0.000708,0.000661,  13.689
   291.0,0.001221,0.001122,0.000666,0.000661,  13.685
   291.2,0.001224,0.001119,0.000673,0.000674,  13.688
   291.4,0.001227,0.001130,0.000664,0.000674,  13.687
   291.6,0.001234,0.001135,0.000602,0.000674,  13.683
   291.8,0.001234,0.001133,0.000548,0.000688,  13.686
   292.0,0.001234,0.001134,0.000566,0.000688,  13.688
   292.2,0.001237,0.001136,0.000602,0.000674,  13.685
   292.4,0.001234,0.001141,0.000656,0.000674,  13.687
   292.6,0.001234,0.001140,0.000666,0.000674,  13.689
   292.8,0.001234,0.001137,0.000658,0.000674,  13.689
   293.0,0.001237,0.001131,0.000621,0.000674,  13.690
   293.2,0.001229,0.001134,0.000604,0.000674,  13.688
   293.4,0.001237,0.001137,0.000579,0.000674,  13.688
   293.6,0.001237,0.001129,0.000552,0.000674,  13.689
   293.8,0.001237,0.001132,0.000544,0.000674,  13.694
   294.0,0.001237,0.001134,0.000527,0.000674,  13.689
   294.2,0.001237,0.001129,0.000527,0.000674,  13.688
   294.4,0.001237,0.001134,0.000482,0.000674,  13.691
   294.6,0.001238,0.001137,0.000419,0.000674,  13.691
   294.8,0.001231,0.001127,0.000321,0.000674,  13.690
   295.0,0.001234,0.001127,-0.000058,0.000674,  13.692
   295.2,0.001238,0.001130,-0.000589,0.000674,  13.693
   295.4,0.001234,0.001127,-0.001275,0.000688,  13.691
   295.6,0.001234,0.001134,-0.001310,0.000674,  13.693
   295.8,0.001234,0.001137,-0.001107,0.000701,  13.693
   296.0,0.001237,0.001131,-0.000658,0.000688,  13.690
   296.2,0.001234,0.001137,-0.000499,0.000688,  13.688
   296.4,0.001234,0.001137,-0.000366,0.000688,  13.693
   296.6,0.001234,0.001127,-0.000241,0.000688,  13.691
   296.8,0.001235,0.001127,-0.000153,0.000688,  13.689
   297.0,0.001236,0.001130,-0.000249,0.000701,  13.690
   297.2,0.001223,0.001126,-0.000426,0.000688,  13.690
   297.4,0.001227,0.001130,-0.000683,0.000674,  13.690
   297.6,0.001218,0.001130,-0.000639,0.000674,  13.696
   297.8,0.001204,0.001125,-0.000481,0.000661,  13.691
   298.0,0.001205,0.001118,-0.000243,0.000648,  13.694
   298.2,0.001196,0.001113,-0.000260,0.000634,  13.689
   298.4,0.001182,0.001107,-0.000376,0.000621,  13.690
   298.6,0.001176,0.001102,-0.000596,0.000634,  13.691
   298.8,0.001167,0.001095,-0.000570,0.000621,  13.688
   299.0,0.001153,0.001087,-0.000456,0.000607,  13.692
   299.2,0.001144,0.001076,-0.000306,0.000607,  13.693
   299.4,0.001142,0.001080,-0.000252,0.000607,  13.696
   299.6,0.001128,0.001075,-0.000218,0.000594,  13.694
   299.8,0.001125,0.001064,-0.000200,0.000594,  13.694
   300.0,0.001119,0.001055,-0.000103,0.000594,  13.692
   300.2,0.001116,0.001045,0.000057,0.000581,  13.693
   300.4,0.001110,0.001040,0.000226,0.000581,  13.690
   300.6,0.001100,0.001034,0.000218,0.000567,  13.690
   300.8,0.001100,0.001029,0.000155,0.000591,  13.690
   301.0,0.001097,0.001025,0.000021,0.000554,  13.688
   301.2,0.001100,0.001026,0.000074,0.000554,  13.691
   301.4,0.001100,0.001030,0.000182,0.000591,  13.690
   301.6,0.001100,0.001026,0.000351,0.000554,  13.691
   301.8,0.001096,0.001027,0.000289,0.000554,  13.689
   302.0,0.001100,0.001022,0.000122,0.000591,  13.691
   302.2,0.001100,0.001019,-0.000143,0.000540,  13.693
   302.4,0.001100,0.001026,-0.000107,0.000540,  13.691
   302.6,0.001097,0.001025,0.000018,0.000578,  13.692
   302.8,0.001097,0.001022,0.000266,0.000527,  13.692
   303.0,0.001094,0.001027,0.000160,0.000527,  13.692
   303.2,0.001088,0.001024,-0.000061,0.000578,  13.689
   303.4,0.001091,0.001026,-0.000397,0.000578,  13.689
   303.6,0.001091,0.001026,-0.000415,0.000540,  13.690
   303.8,0.001094,0.001021,-0.000353,0.000554,  13.691
   304.0,0.001094,0.001017,-0.000186,0.000578,  13.688
   304.2,0.001091,0.001017,-0.000088,0.000554,  13.694
   304.4,0.001088,0.001013,0.000010,0.000591,  13.690
   304.6,0.001085,0.001011,0.000133,0.000578,  13.690
   304.8,0.001082,0.001021,0.000212,0.000540,  13.692
   305.0,0.001076,0.001019,0.000258,0.000540,  13.690
   305.2,0.001076,0.001013,0.000283,0.000578,  13.691
   305.4,0.001069,0.001010,0.000283,0.000540,  13.690
   305.6,0.001066,0.000999,0.000293,0.000540,  13.691
   305.8,0.001073,0.000999,0.000301,0.000578,  13.689
   306.0,0.001076,0.000999,0.000283,0.000554,  13.691
   306.2,0.001082,0.000996,0.000275,0.000554,  13.689
   306.4,0.001078,0.001001,0.000293,0.000591,  13.691
   306.6,0.001084,0.001011,0.000310,0.000567,  13.692
   306.8,0.001084,0.001008,0.000275,0.000567,  13.688
   307.0,0.001076,0.001013,0.000231,0.000591,  13.688
   307.2,0.001076,0.001005,0.000185,0.000540,  13.690
   307.4,0.001078,0.001008,0.000212,0.000540,  13.688
   307.6,0.001085,0.001010,0.000249,0.000578,  13.690
   307.8,0.001085,0.001010,0.000337,0.000527,  13.691
   308.0,0.001082,0.001010,0.000337,0.000527,  13.693
   308.2,0.001089,0.001010,0.000301,0.000578,  13.693
   308.4,0.001089,0.001006,0.000230,0.000540,  13.690
   308.6,0.001082,0.001004,0.000274,0.000540,  13.690
   308.8,0.001082,0.001004,0.000328,0.000578,  13.690
   309.0,0.001082,0.000998,0.000416,0.000540,  13.690
   309.2,0.001082,0.001003,0.000426,0.000540,  13.693
   309.4,0.001079,0.001006,0.000416,0.000578,  13.691
   309.6,0.001079,0.001000,0.000362,0.000540,  13.692
   309.8,0.001083,0.001006,0.000195,0.000540,  13.690
   310.0,0.001083,0.001008,-0.000036,0.000578,  13.693
   310.2,0.001083,0.001000,-0.000338,0.000540,  13.689
   310.4,0.001079,0.001001,-0.000319,0.000578,  13.688
   310.6,0.001076,0.001001,-0.000151,0.000602,  13.692
   310.8,0.001079,0.001001,0.000141,0.000578,  13.690
   311.0,0.001079,0.001001,0.000195,0.000578,  13.692
   311.2,0.001076,0.001004,0.000212,0.000578,  13.693
   311.4,0.001085,0.001003,0.000176,0.000554,  13.692
   311.6,0.001091,0.001008,0.000122,0.000567,  13.693
   311.8,0.001097,0.001015,0.000026,0.000618,  13.691
   312.0,0.001110,0.001022,-0.000142,0.000607,  13.692
   312.2,0.001119,0.001037,-0.000105,0.000621,  13.690
   312.4,0.001128,0.001049,0.000002,0.000658,  13.693
   312.6,0.001141,0.001048,0.000171,0.000672,  13.693
   312.8,0.001147,0.001052,0.000208,0.000648,  13.697
   313.0,0.001156,0.001059,0.000208,0.000661,  13.695
   313.2,0.001166,0.001061,0.000137,0.000685,  13.691
   313.4,0.001169,0.001069,0.000102,0.000661,  13.689
   313.6,0.001172,0.001072,0.000092,0.000685,  13.694
   313.8,0.001178,0.001074,0.000048,0.000685,  13.692
   314.0,0.001184,0.001080,-0.000006,0.000661,  13.691
   314.2,0.001187,0.001084,0.000013,0.000661,  13.689
   314.4,0.001193,0.001083,0.000050,0.000699,  13.692
   314.6,0.001193,0.001092,0.000103,0.000661,  13.687
   314.8,0.001193,0.001095,0.000086,0.000661,  13.690
   315.0,0.001196,0.001097,0.000059,0.000699,  13.689
   315.2,0.001200,0.001098,-0.000004,0.000661,  13.691
   315.4,0.001196,0.001098,-0.000021,0.000661,  13.688
   315.6,0.001196,0.001092,-0.000012,0.000699,  13.691
   315.8,0.001200,0.001098,0.000013,0.000661,  13.690
   316.0,0.001204,0.001098,-0.000004,0.000661,  13.690
   316.2,0.001196,0.001095,-0.000021,0.000699,  13.692
   316.4,0.001200,0.001097,-0.000040,0.000661,  13.691
   316.6,0.001207,0.001103,-0.000040,0.000661,  13.691
   316.8,0.001203,0.001103,-0.000066,0.000699,  13.691
   317.0,0.001203,0.001100,-0.000066,0.000674,  13.694
   317.2,0.001206,0.001101,-0.000039,0.000674,  13.693
   317.4,0.001209,0.001107,-0.000021,0.000712,  13.696
   317.6,0.001209,0.001107,0.000005,0.000688,  13.698
   317.8,0.001209,0.001118,-0.000012,0.000688,  13.691
   318.0,0.001212,0.001114,-0.000048,0.000712,  13.694
   318.2,0.001212,0.001117,-0.000119,0.000674,  13.695
   318.4,0.001209,0.001116,-0.000110,0.000674,  13.692
   318.6,0.001212,0.001113,-0.000083,0.000712,  13.690
   318.8,0.001212,0.001105,-0.000029,0.000674,  13.693
   319.0,0.001209,0.001111,-0.000064,0.000688,  13.693
   319.2,0.001209,0.001115,-0.000108,0.000688,  13.690
   319.4,0.001206,0.001112,-0.000179,0.000688,  13.692
   319.6,0.001201,0.001115,-0.000197,0.000701,  13.691
   319.8,0.001206,0.001115,-0.000170,0.000688,  13.693
   320.0,0.001209,0.001112,-0.000118,0.000688,  13.692
   320.2,0.001206,0.001111,-0.000091,0.000688,  13.693
   320.4,0.001203,0.001108,-0.000064,0.000674,  13.691
   320.6,0.001200,0.001101,-0.000054,0.000661,  13.697
   320.8,0.001193,0.001102,-0.000072,0.000661,  13.696
   321.0,0.001184,0.001100,-0.000099,0.000661,  13.697
   321.2,0.001178,0.001093,-0.000127,0.000661,  13.694
   321.4,0.001166,0.001081,-0.000110,0.000648,  13.693
   321.6,0.001156,0.001082,-0.000118,0.000648,  13.695
   321.8,0.001153,0.001077,-0.000100,0.000634,  13.692
   322.0,0.001147,0.001067,-0.000093,0.000634,  13.695
   322.2,0.001141,0.001064,-0.000110,0.000621,  13.694
   322.4,0.001130,0.001060,-0.000119,0.000607,  13.695
   322.6,0.001130,0.001052,-0.000146,0.000607,  13.695
   322.8,0.001124,0.001050,-0.000127,0.000607,  13.694
   323.0,0.001113,0.001050,-0.000100,0.000594,  13.693
   323.2,0.001107,0.001050,-0.000047,0.000594,  13.698
   323.4,0.001108,0.001048,-0.000072,0.000607,  13.695
   323.6,0.001105,0.001043,-0.000091,0.000594,  13.694
   323.8,0.001099,0.001036,-0.000137,0.000594,  13.694
   324.0,0.001093,0.001031,-0.000181,0.000594,  13.693
   324.2,0.001093,0.001024,-0.000217,0.000567,  13.693
   324.4,0.001087,0.001026,-0.000288,0.000567,  13.694
   324.6,0.001087,0.001024,-0.000306,0.000581,  13.693
   324.8,0.001087,0.001026,-0.000288,0.000567,  13.696
   325.0,0.001081,0.001017,-0.000252,0.000567,  13.694
   325.2,0.001074,0.001022,-0.000243,0.000581,  13.695
   325.4,0.001079,0.001016,-0.000235,0.000567,  13.696
   325.6,0.001079,0.001014,-0.000269,0.000567,  13.696
   325.8,0.001079,0.001012,-0.000243,0.000567,  13.694
   326.0,0.001083,0.001009,-0.000190,0.000554,  13.694
   326.2,0.001077,0.001006,-0.000146,0.000540,  13.697
   326.4,0.001074,0.001006,-0.000129,0.000540,  13.695
   326.6,0.001069,0.001006,-0.000129,0.000540,  13.693
   326.8,0.001073,0.001001,-0.000146,0.000540,  13.695
   327.0,0.001079,0.001008,-0.000164,0.000540,  13.694
   327.2,0.001079,0.001005,-0.000198,0.000591,  13.694
   327.4,0.001082,0.001006,-0.000225,0.000554,  13.693
   327.6,0.001071,0.001006,-0.000250,0.000591,  13.697
   327.8,0.001079,0.001002,-0.000250,0.000602,  13.696
   328.0,0.001079,0.000997,-0.000243,0.000565,  13.692
   328.2,0.001079,0.001006,-0.000250,0.000602,  13.694
   328.4,0.001079,0.001008,-0.000250,0.000602,  13.695
   328.6,0.001079,0.001002,-0.000277,0.000578,  13.695
   328.8,0.001076,0.001008,-0.000391,0.000616,  13.696
   329.0,0.001073,0.001010,-0.000550,0.000616,  13.692
   329.2,0.001068,0.001002,-0.000763,0.000591,  13.691
   329.4,0.001065,0.001002,-0.000878,0.000591,  13.695
   329.6,0.001065,0.000998,-0.000958,0.000591,  13.697
   329.8,0.001068,0.001001,-0.001006,0.000591,  13.699
   330.0,0.001065,0.000998,-0.000935,0.000567,  13.699
   330.2,0.001073,0.000996,-0.000793,0.000554,  13.698
   330.4,0.001083,0.000994,-0.000580,0.000591,  13.694
   330.6,0.001080,0.000997,-0.000482,0.000567,  13.697
   330.8,0.001069,0.000989,-0.000402,0.000591,  13.699
   331.0,0.001073,0.000989,-0.000350,0.000591,  13.701
   331.2,0.001073,0.000991,-0.000323,0.000554,  13.696
   331.4,0.001069,0.000989,-0.000243,0.000554,  13.696
   331.6,0.001069,0.000987,-0.000154,0.000591,  13.700
   331.8,0.001066,0.000985,-0.000031,0.000554,  13.698
   332.0,0.001060,0.000987,-0.000243,0.000554,  13.701
   332.2,0.001060,0.000984,-0.000596,0.000591,  13.704
   332.4,0.001063,0.000990,-0.001108,0.000554,  13.700
   332.6,0.001063,0.000990,-0.001117,0.000567,  13.704
   332.8,0.001059,0.000987,-0.001003,0.000605,  13.704
   333.0,0.001055,0.000990,-0.000713,0.000567,  13.704
   333.2,0.001055,0.000991,-0.000580,0.000581,  13.703
   333.4,0.001050,0.000988,-0.000473,0.000605,  13.704
   333.6,0.001046,0.000988,-0.000367,0.000567,  13.701
   333.8,0.001061,0.000993,-0.000932,0.000581,  13.701
   334.0,0.001064,0.000996,-0.001847,0.000605,  13.706
   334.2,0.001050,0.000994,-0.003128,0.000567,  13.705
   334.4,0.001051,0.000998,-0.003128,0.000581,  13.709
   334.6,0.001065,0.000997,-0.002682,0.000605,  13.705
   334.8,0.001068,0.000999,-0.001795,0.000581,  13.708
   335.0,0.001082,0.001000,-0.001512,0.000594,  13.710
   335.2,0.001094,0.001003,-0.001284,0.000645,  13.713
   335.4,0.001107,0.001013,-0.001169,0.000621,  13.709
   335.6,0.001115,0.001025,-0.000974,0.000621,  13.711
   335.8,0.001117,0.001034,-0.000798,0.000672,  13.709
   336.0,0.001126,0.001043,-0.000638,0.000648,  13.707
   336.2,0.001139,0.001053,-0.000496,0.000648,  13.710
   336.4,0.001146,0.001054,-0.000372,0.000685,  13.713
   336.6,0.001148,0.001059,-0.000274,0.000661,  13.711
   336.8,0.001155,0.001065,-0.000185,0.000661,  13.714
   337.0,0.001158,0.001061,-0.000114,0.000685,  13.717
   337.2,0.001164,0.001069,-0.000070,0.000674,  13.715
   337.4,0.001175,0.001077,-0.000034,0.000674,  13.715
   337.6,0.001181,0.001077,-0.000016,0.000712,  13.714
   337.8,0.001195,0.001087,0.000001,0.000688,  13.716
   338.0,0.001198,0.001092,-0.000009,0.000701,  13.716
   338.2,0.001193,0.001091,-0.000080,0.000725,  13.715
   338.4,0.001189,0.001099,-0.000170,0.000739,  13.716
   338.6,0.001195,0.001099,-0.000206,0.000688,  13.719
   338.8,0.001195,0.001099,-0.000216,0.000701,  13.718
   339.0,0.001188,0.001104,-0.000250,0.000725,  13.718
   339.2,0.001191,0.001107,-0.000356,0.000688,  13.719
   339.4,0.001195,0.001110,-0.000479,0.000725,  13.720
   339.6,0.001195,0.001110,-0.000656,0.000725,  13.720
   339.8,0.001195,0.001107,-0.000867,0.000688,  13.719
   340.0,0.001192,0.001110,-0.000850,0.000701,  13.720
   340.2,0.001192,0.001107,-0.000805,0.000725,  13.721
   340.4,0.001195,0.001108,-0.000709,0.000688,  13.722
   340.6,0.001195,0.001111,-0.000602,0.000701,  13.722
   340.8,0.001206,0.001110,-0.000460,0.000725,  13.720
   341.0,0.001206,0.001111,-0.000301,0.000688,  13.724
   341.2,0.001206,0.001114,-0.000264,0.000701,  13.723
   341.4,0.001216,0.001106,-0.000264,0.000725,  13.724
   341.6,0.001213,0.001110,-0.000328,0.000688,  13.724
   341.8,0.001206,0.001104,-0.000372,0.000701,  13.726
   342.0,0.001209,0.001109,-0.000433,0.000725,  13.723
   342.2,0.001206,0.001103,-0.000504,0.000688,  13.725
   342.4,0.001206,0.001106,-0.000451,0.000701,  13.724
   342.6,0.001209,0.001111,-0.000362,0.000725,  13.724
   342.8,0.001206,0.001102,-0.000255,0.000688,  13.726
   343.0,0.001206,0.001107,-0.000228,0.000701,  13.723
   343.2,0.001206,0.001109,-0.000238,0.000725,  13.725
   343.4,0.001203,0.001106,-0.000291,0.000688,  13.726
   343.6,0.001200,0.001109,-0.000309,0.000701,  13.732
   343.8,0.001193,0.001101,-0.000335,0.000725,  13.727
   344.0,0.001196,0.001101,-0.000362,0.000688,  13.726
   344.2,0.001195,0.001096,-0.000345,0.000688,  13.723
   344.4,0.001182,0.001092,-0.000353,0.000712,  13.727
   344.6,0.001179,0.001084,-0.000318,0.000661,  13.726
   344.8,0.001168,0.001080,-0.000257,0.000648,  13.727
   345.0,0.001165,0.001073,-0.000176,0.000672,  13.728
   345.2,0.001154,0.001069,-0.000095,0.000634,  13.726
   345.4,0.001148,0.001066,-0.000061,0.000607,  13.723
   345.6,0.001145,0.001061,-0.000061,0.000645,  13.727
   345.8,0.001139,0.001053,-0.000078,0.000621,  13.725
   346.0,0.001133,0.001045,-0.000343,0.000607,  13.728
   346.2,0.001123,0.001041,-0.000758,0.000607,  13.727
   346.4,0.001110,0.001036,-0.001305,0.000607,  13.724
   346.6,0.001100,0.001029,-0.001358,0.000607,  13.729
   346.8,0.001102,0.001026,-0.001279,0.000594,  13.726
   347.0,0.001088,0.001021,-0.001026,0.000581,  13.730
   347.2,0.001089,0.001014,-0.000938,0.000581,  13.727
   347.4,0.001091,0.001012,-0.000867,0.000581,  13.728
   347.6,0.001083,0.001007,-0.000815,0.000567,  13.728
   347.8,0.001091,0.001005,-0.000744,0.000567,  13.728
   348.0,0.001094,0.001005,-0.000681,0.000567,  13.727
   348.2,0.001086,0.000999,-0.000610,0.000567,  13.729
   348.4,0.001083,0.000999,-0.000539,0.000567,  13.730
   348.6,0.001080,0.000997,-0.000495,0.000581,  13.727
   348.8,0.001076,0.000989,-0.000485,0.000567,  13.731
   349.0,0.001073,0.000992,-0.000468,0.000567,  13.726
   349.2,0.001080,0.000990,-0.000422,0.000567,  13.731
   349.4,0.001073,0.000993,-0.000334,0.000554,  13.729
   349.6,0.001066,0.001001,-0.000219,0.000554,  13.728
   349.8,0.001068,0.001001,-0.000226,0.000554,  13.728
   350.0,0.001060,0.000998,-0.000271,0.000554,  13.731
   350.2,0.001060,0.000990,-0.000368,0.000554,  13.730
   350.4,0.001060,0.000985,-0.000378,0.000554,  13.731
   350.6,0.001060,0.000987,-0.000405,0.000554,  13.731
   350.8,0.001063,0.000985,-0.000441,0.000554,  13.730
   351.0,0.001063,0.000990,-0.000424,0.000554,  13.728
   351.2,0.001063,0.000987,-0.000397,0.000554,  13.729
   351.4,0.001060,0.000985,-0.000370,0.000554,  13.728
   351.6,0.001054,0.000993,-0.000387,0.000567,  13.733
   351.8,0.001054,0.000990,-0.000449,0.000567,  13.733
   352.0,0.001054,0.000990,-0.000504,0.000567,  13.732
   352.2,0.001054,0.000984,-0.000504,0.000581,  13.731
   352.4,0.001051,0.000981,-0.000504,0.000567,  13.730
   352.6,0.001051,0.000984,-0.000504,0.000567,  13.730
   352.8,0.001051,0.000982,-0.000451,0.000567,  13.732
   353.0,0.001051,0.000984,-0.000380,0.000554,  13.730
   353.2,0.001051,0.000982,-0.000309,0.000554,  13.732
   353.4,0.001054,0.000987,-0.000272,0.000567,  13.734
   353.6,0.001054,0.000990,-0.000238,0.000567,  13.738
   353.8,0.001060,0.000982,-0.000255,0.000567,  13.736
   354.0,0.001057,0.000987,-0.000228,0.000581,  13.735
   354.2,0.001068,0.000987,-0.000184,0.000567,  13.735
   354.4,0.001068,0.000983,-0.000157,0.000567,  13.734
   354.6,0.001068,0.000988,-0.000342,0.000581,  13.731
   354.8,0.001063,0.000983,-0.000643,0.000567,  13.733
   355.0,0.001063,0.000988,-0.001067,0.000567,  13.734
   355.2,0.001066,0.000989,-0.001216,0.000581,  13.739
   355.4,0.001063,0.000986,-0.001287,0.000567,  13.739
   355.6,0.001066,0.000991,-0.001270,0.000567,  13.736
   355.8,0.001069,0.000990,-0.001199,0.000581,  13.737
   356.0,0.001069,0.000987,-0.001032,0.000567,  13.733
   356.2,0.001073,0.000995,-0.000812,0.000567,  13.734
   356.4,0.001073,0.000990,-0.000706,0.000581,  13.737
   356.6,0.001073,0.000987,-0.000645,0.000581,  13.736
   356.8,0.001073,0.000994,-0.000619,0.000567,  13.739
   357.0,0.001069,0.000995,-0.000558,0.000581,  13.737
   357.2,0.001063,0.000990,-0.000470,0.000581,  13.734
   357.4,0.001063,0.000992,-0.000408,0.000567,  13.741
   357.6,0.001063,0.000991,-0.000329,0.000567,  13.744
   357.8,0.001068,0.000988,-0.000241,0.000567,  13.737
   358.0,0.001063,0.000994,-0.000152,0.000554,  13.742
   358.2,0.001066,0.000994,-0.000072,0.000554,  13.742
   358.4,0.001073,0.000995,-0.000089,0.000581,  13.741
   358.6,0.001078,0.001010,-0.000187,0.000594,  13.741
   358.8,0.001087,0.001018,-0.000356,0.000607,  13.745
   359.0,0.001102,0.001022,-0.000391,0.000621,  13.741
   359.2,0.001107,0.001039,-0.000400,0.000634,  13.740
   359.4,0.001120,0.001051,-0.000408,0.000648,  13.742
   359.6,0.001133,0.001056,-0.000389,0.000648,  13.744
   359.8,0.001139,0.001066,-0.000345,0.000661,  13.742
   360.0,0.001149,0.001064,-0.000309,0.000674,  13.743
   360.2,0.001155,0.001072,-0.000316,0.000674,  13.740
   360.4,0.001158,0.001072,-0.000309,0.000674,  13.745
   360.6,0.001164,0.001079,-0.000345,0.000688,  13.745
   360.8,0.001167,0.001088,-0.000787,0.000688,  13.747
   361.0,0.001174,0.001090,-0.001456,0.000674,  13.746
   361.2,0.001180,0.001092,-0.002326,0.000674,  13.749
   361.4,0.001180,0.001091,-0.002352,0.000688,  13.747
   361.6,0.001186,0.001093,-0.002079,0.000688,  13.750
   361.8,0.001186,0.001095,-0.001490,0.000688,  13.747
   362.0,0.001186,0.001098,-0.001279,0.000701,  13.748
   362.2,0.001189,0.001098,-0.001138,0.000688,  13.751
   362.4,0.001192,0.001099,-0.001024,0.000688,  13.750
   362.6,0.001189,0.001106,-0.000865,0.000701,  13.750
   362.8,0.001189,0.001103,-0.000706,0.000701,  13.752
   363.0,0.001195,0.001100,-0.000539,0.000701,  13.752
   363.2,0.001195,0.001101,-0.000451,0.000701,  13.755
   363.4,0.001195,0.001101,-0.000389,0.000739,  13.755
   363.6,0.001191,0.001099,-0.000406,0.000701,  13.755
   363.8,0.001198,0.001100,-0.000353,0.000701,  13.755
   364.0,0.001198,0.001100,-0.000309,0.000739,  13.756
   364.2,0.001201,0.001100,-0.000272,0.000701,  13.754
   364.4,0.001209,0.001110,-0.000280,0.000701,  13.752
   364.6,0.001209,0.001109,-0.000316,0.000725,  13.757
   364.8,0.001219,0.001108,-0.000362,0.000688,  13.755
   365.0,0.001219,0.001108,-0.000372,0.000701,  13.756
   365.2,0.001209,0.001107,-0.000406,0.000725,  13.755
   365.4,0.001212,0.001112,-0.000424,0.000725,  13.760
   365.6,0.001212,0.001116,-0.000389,0.000688,  13.756
   365.8,0.001209,0.001116,-0.000353,0.000688,  13.754
   366.0,0.001212,0.001119,-0.000316,0.000725,  13.758
   366.2,0.001212,0.001119,-0.000307,0.000688,  13.761
   366.4,0.001209,0.001122,-0.000290,0.000725,  13.763
   366.6,0.001209,0.001119,-0.000324,0.000725,  13.758
   366.8,0.001209,0.001119,-0.000326,0.000688,  13.755
   367.0,0.001203,0.001119,-0.000282,0.000701,  13.760
   367.2,0.001195,0.001111,-0.000228,0.000725,  13.760
   367.4,0.001192,0.001109,-0.000157,0.000688,  13.760
   367.6,0.001186,0.001104,-0.000121,0.000688,  13.760
   367.8,0.001180,0.001098,-0.000076,0.000712,  13.760
   368.0,0.001174,0.001090,-0.000042,0.000661,  13.757
   368.2,0.001172,0.001085,-0.000051,0.000648,  13.758
   368.4,0.001166,0.001075,-0.000113,0.000672,  13.760
   368.6,0.001159,0.001073,-0.000178,0.000634,  13.762
   368.8,0.001149,0.001069,-0.000214,0.000645,  13.763
   369.0,0.001138,0.001061,-0.000258,0.000683,  13.761
   369.2,0.001129,0.001059,-0.000302,0.000658,  13.760
   369.4,0.001130,0.001059,-0.000329,0.000683,  13.759
   369.6,0.001135,0.001052,-0.000339,0.000683,  13.761
   369.8,0.001128,0.001054,-0.000339,0.000645,  13.760
   370.0,0.001122,0.001049,-0.000320,0.000683,  13.760
   370.2,0.001119,0.001047,-0.000293,0.000669,  13.760
   370.4,0.001116,0.001039,-0.000239,0.000632,  13.759
   370.6,0.001108,0.001041,-0.000239,0.000683,  13.760
   370.8,0.001098,0.001041,-0.000283,0.000669,  13.763
   371.0,0.001095,0.001033,-0.000354,0.000632,  13.758
   371.2,0.001099,0.001034,-0.000408,0.000683,  13.757
   371.4,0.001096,0.001034,-0.000489,0.000669,  13.761
   371.6,0.001096,0.001031,-0.000569,0.000632,  13.759
   371.8,0.001096,0.001029,-0.000515,0.000645,  13.756
   372.0,0.001100,0.001026,-0.000425,0.000632,  13.764
   372.2,0.001097,0.001026,-0.000257,0.000594,  13.759
   372.4,0.001097,0.001024,-0.000203,0.000607,  13.763
   372.6,0.001091,0.001016,-0.000185,0.000632,  13.761
   372.8,0.001084,0.001016,-0.000203,0.000594,  13.762
   373.0,0.001084,0.001013,-0.000211,0.000594,  13.760
   373.2,0.001081,0.001007,-0.000220,0.000618,  13.761
   373.4,0.001070,0.001010,-0.000238,0.000567,  13.762
   373.6,0.001067,0.001006,-0.000238,0.000567,  13.760
   373.8,0.001071,0.001003,-0.000257,0.000530,  13.763
   374.0,0.001068,0.001003,-0.000276,0.000581,  13.758
   374.2,0.001068,0.001003,-0.000276,0.000581,  13.758
   374.4,0.001071,0.001000,-0.000257,0.000581,  13.764
   374.6,0.001074,0.001004,-0.000212,0.000581,  13.758
   374.8,0.001074,0.001011,-0.000176,0.000581,  13.762
   375.0,0.001074,0.001016,-0.000335,0.000581,  13.763
   375.2,0.001078,0.001015,-0.000610,0.000618,  13.760
   375.4,0.001073,0.001017,-0.000972,0.000581,  13.757
   375.6,0.001073,0.001018,-0.000990,0.000594,  13.758
   375.8,0.001073,0.001020,-0.000875,0.000632,  13.762
   376.0,0.001073,0.001017,-0.000629,0.000594,  13.759
   376.2,0.001081,0.001017,-0.000550,0.000607,  13.758
   376.4,0.001084,0.001020,-0.000506,0.000632,  13.758
   376.6,0.001084,0.001024,-0.000473,0.000594,  13.760
   376.8,0.001087,0.001024,-0.000394,0.000607,  13.762
   377.0,0.001090,0.001029,-0.000331,0.000632,  13.762
   377.2,0.001087,0.001025,-0.000260,0.000594,  13.760
   377.4,0.001087,0.001033,-0.000197,0.000607,  13.759
   377.6,0.001090,0.001030,-0.000118,0.000632,  13.766
   377.8,0.001087,0.001035,-0.000064,0.000594,  13.760
   378.0,0.001087,0.001037,-0.000037,0.000607,  13.765
   378.2,0.001087,0.001034,-0.000047,0.000632,  13.762
   378.4,0.001084,0.001029,-0.000066,0.000594,  13.761
   378.6,0.001081,0.001026,-0.000093,0.000607,  13.764
   378.8,0.001088,0.001026,-0.000156,0.000632,  13.760
   379.0,0.001091,0.001022,-0.000236,0.000594,  13.762
   379.2,0.001091,0.001023,-0.000219,0.000607,  13.761
   379.4,0.001099,0.001018,-0.000175,0.000632,  13.763
   379.6,0.001102,0.001020,-0.000112,0.000594,  13.766
   379.8,0.001091,0.001020,-0.000112,0.000594,  13.764
   380.0,0.001087,0.001014,-0.000121,0.000618,  13.768
   380.2,0.001087,0.001020,-0.000165,0.000581,  13.767
   380.4,0.001087,0.001020,-0.000146,0.000581,  13.767
   380.6,0.001087,0.001014,-0.000094,0.000605,  13.770
   380.8,0.001079,0.001014,-0.000015,0.000567,  13.769
   381.0,0.001087,0.001014,-0.000209,0.000581,  13.771
   381.2,0.001084,0.001012,-0.000536,0.000605,  13.767
   381.4,0.001076,0.001010,-0.000987,0.000567,  13.767
   381.6,0.001084,0.001018,-0.001234,0.000581,  13.768
   381.8,0.001076,0.001021,-0.001489,0.000618,  13.772
   382.0,0.001082,0.001018,-0.001726,0.000594,  13.771
   382.2,0.001084,0.001030,-0.001857,0.000607,  13.774
   382.4,0.001098,0.001040,-0.001901,0.000658,  13.776
   382.6,0.001107,0.001045,-0.001908,0.000672,  13.772
   382.8,0.001120,0.001057,-0.001784,0.000661,  13.775
   383.0,0.001136,0.001061,-0.001582,0.000661,  13.774
   383.2,0.001143,0.001069,-0.001265,0.000699,  13.777
   383.4,0.001149,0.001073,-0.001089,0.000661,  13.774
   383.6,0.001155,0.001077,-0.000955,0.000712,  13.779
   383.8,0.001169,0.001083,-0.000798,0.000725,  13.776
   384.0,0.001172,0.001088,-0.000700,0.000701,  13.781
   384.2,0.001178,0.001091,-0.000602,0.000715,  13.786
   384.4,0.001192,0.001093,-0.000541,0.000725,  13.779
   384.6,0.001192,0.001096,-0.000496,0.000688,  13.781
   384.8,0.001184,0.001100,-0.000433,0.000701,  13.784
   385.0,0.001190,0.001103,-0.000362,0.000725,  13.783
   385.2,0.001190,0.001108,-0.000301,0.000688,  13.782
   385.4,0.001193,0.001113,-0.000274,0.000701,  13.784
   385.6,0.001196,0.001107,-0.000257,0.000739,  13.780
   385.8,0.001200,0.001109,-0.000276,0.000701,  13.783
   386.0,0.001204,0.001111,-0.000285,0.000701,  13.784
   386.2,0.001196,0.001108,-0.000312,0.000739,  13.785
   386.4,0.001200,0.001116,-0.000339,0.000701,  13.782
   386.6,0.001204,0.001116,-0.000312,0.000701,  13.788
   386.8,0.001196,0.001116,-0.000295,0.000739,  13.788
   387.0,0.001203,0.001123,-0.000241,0.000701,  13.787
   387.2,0.001210,0.001128,-0.000683,0.000701,  13.790
   387.4,0.001206,0.001125,-0.001379,0.000739,  13.792
   387.6,0.001209,0.001127,-0.002302,0.000701,  13.788
   387.8,0.001209,0.001127,-0.002356,0.000715,  13.788
   388.0,0.001212,0.001122,-0.002101,0.000752,  13.788
   388.2,0.001212,0.001125,-0.001547,0.000715,  13.787
   388.4,0.001209,0.001123,-0.001300,0.000728,  13.789
   388.6,0.001212,0.001115,-0.001097,0.000752,  13.792
   388.8,0.001212,0.001120,-0.000903,0.000715,  13.791
   389.0,0.001209,0.001120,-0.000735,0.000728,  13.788
   389.2,0.001212,0.001118,-0.000593,0.000752,  13.791
   389.4,0.001212,0.001116,-0.000477,0.000715,  13.791
   389.6,0.001209,0.001119,-0.000441,0.000766,  13.789
   389.8,0.001209,0.001116,-0.000443,0.000790,  13.792
   390.0,0.001209,0.001116,-0.000531,0.000752,  13.786
   390.2,0.001201,0.001116,-0.000566,0.000752,  13.789
   390.4,0.001209,0.001113,-0.000585,0.000739,  13.791
   390.6,0.001209,0.001111,-0.000656,0.000701,  13.790
   390.8,0.001206,0.001110,-0.000585,0.000701,  13.791
   391.0,0.001200,0.001104,-0.000443,0.000725,  13.791
   391.2,0.001193,0.001099,-0.000274,0.000688,  13.795
   391.4,0.001184,0.001096,-0.000230,0.000688,  13.792
   391.6,0.001179,0.001091,-0.000204,0.000712,  13.790
   391.8,0.001166,0.001084,-0.000258,0.000699,  13.793
   392.0,0.001156,0.001080,-0.000231,0.000661,  13.793
   392.2,0.001150,0.001070,-0.000178,0.000661,  13.794
   392.4,0.001144,0.001062,-0.000141,0.000685,  13.791
   392.6,0.001138,0.001060,-0.000124,0.000648,  13.794
   392.8,0.001131,0.001052,-0.000124,0.000672,  13.793
   393.0,0.001125,0.001044,-0.000141,0.000658,  13.793
   393.2,0.001116,0.001039,-0.000178,0.000634,  13.792
   393.4,0.001107,0.001027,-0.000204,0.000621,  13.794
   393.6,0.001100,0.001028,-0.000266,0.000645,  13.796
   393.8,0.001094,0.001030,-0.000320,0.000607,  13.794
   394.0,0.001088,0.001022,-0.000320,0.000607,  13.796
   394.2,0.001085,0.001022,-0.000293,0.000632,  13.793
   394.4,0.001082,0.001018,-0.000231,0.000594,  13.793
   394.6,0.001076,0.001012,-0.000399,0.000594,  13.793
   394.8,0.001068,0.001014,-0.000671,0.000618,  13.793
   395.0,0.001065,0.001012,-0.001061,0.000581,  13.793
   395.2,0.001065,0.001010,-0.001087,0.000581,  13.793
   395.4,0.001061,0.001012,-0.000990,0.000618,  13.792
   395.6,0.001055,0.001004,-0.000796,0.000581,  13.795
   395.8,0.001059,0.001004,-0.000725,0.000581,  13.793
   396.0,0.001059,0.000999,-0.000646,0.000605,  13.797
   396.2,0.001056,0.000992,-0.000602,0.000567,  13.796
   396.4,0.001050,0.000988,-0.000531,0.000581,  13.794
   396.6,0.001047,0.000981,-0.000460,0.000605,  13.799
   396.8,0.001047,0.000982,-0.000406,0.000567,  13.795
   397.0,0.001043,0.000988,-0.000362,0.000567,  13.796
   397.2,0.001043,0.000986,-0.000335,0.000591,  13.794
   397.4,0.001047,0.000980,-0.000343,0.000554,  13.793
   397.6,0.001050,0.000983,-0.000307,0.000554,  13.794
   397.8,0.001053,0.000977,-0.000253,0.000591,  13.795
   398.0,0.001053,0.000979,-0.000192,0.000554,  13.794
   398.2,0.001047,0.000979,-0.000182,0.000554,  13.789
   398.4,0.001054,0.000976,-0.000174,0.000591,  13.792
   398.6,0.001054,0.000987,-0.000219,0.000554,  13.791
   398.8,0.001054,0.000989,-0.000226,0.000554,  13.794
   399.0,0.001054,0.000986,-0.000209,0.000591,  13.795
   399.2,0.001057,0.000991,-0.000192,0.000554,  13.796
   399.4,0.001047,0.000989,-0.000155,0.000554,  13.794
   399.6,0.001054,0.000986,-0.000094,0.000591,  13.794
   399.8,0.001057,0.000991,-0.000059,0.000554,  13.791
   400.0,0.001057,0.000989,-0.000032,0.000567,  13.792
   400.2,0.001060,0.000988,-0.000023,0.000605,  13.796
   400.4,0.001060,0.000996,-0.000015,0.000567,  13.795
   400.6,0.001060,0.000998,-0.000034,0.000581,  13.793
   400.8,0.001060,0.000998,-0.000105,0.000605,  13.793
   401.0,0.001060,0.001000,-0.000178,0.000605,  13.796
   401.2,0.001060,0.001000,-0.000187,0.000581,  13.793
   401.4,0.001057,0.000995,-0.000178,0.000567,  13.794
   401.6,0.001057,0.000998,-0.000143,0.000591,  13.794
   401.8,0.001057,0.000996,-0.000126,0.000567,  13.797
   402.0,0.001054,0.000991,-0.000133,0.000591,  13.794
   402.2,0.001054,0.000993,-0.000124,0.000591,  13.796
   402.4,0.001054,0.000991,-0.000124,0.000540,  13.795
   402.6,0.001054,0.000983,-0.000168,0.000540,  13.795
   402.8,0.001054,0.000988,-0.000249,0.000565,  13.796
   403.0,0.001054,0.000991,-0.000339,0.000527,  13.795
   403.2,0.001054,0.000986,-0.000329,0.000527,  13.795
   403.4,0.001054,0.000994,-0.000285,0.000578,  13.797
   403.6,0.001057,0.000996,-0.000197,0.000540,  13.797
   403.8,0.001060,0.000995,-0.000197,0.000540,  13.800
   404.0,0.001060,0.001003,-0.000268,0.000578,  13.797
   404.2,0.001060,0.000999,-0.000358,0.000540,  13.797
   404.4,0.001057,0.001002,-0.000314,0.000540,  13.795
   404.6,0.001057,0.001007,-0.000260,0.000578,  13.804
   404.8,0.001063,0.001001,-0.000162,0.000554,  13.798
   405.0,0.001071,0.001004,-0.000179,0.000567,  13.802
   405.2,0.001073,0.001006,-0.000241,0.000618,  13.801
   405.4,0.001088,0.001013,-0.000356,0.000607,  13.805
   405.6,0.001111,0.001023,-0.000391,0.000621,  13.806
   405.8,0.001119,0.001024,-0.000391,0.000658,  13.798
   406.0,0.001131,0.001039,-0.000399,0.000634,  13.804
   406.2,0.001141,0.001055,-0.000424,0.000648,  13.801
   406.4,0.001150,0.001057,-0.000433,0.000699,  13.803
   406.6,0.001159,0.001066,-0.000460,0.000674,  13.805
   406.8,0.001162,0.001079,-0.000458,0.000674,  13.805
   407.0,0.001161,0.001081,-0.000449,0.000712,  13.801
   407.2,0.001164,0.001085,-0.000405,0.000688,  13.808
   407.4,0.001170,0.001090,-0.000395,0.000701,  13.804
   407.6,0.001174,0.001087,-0.000413,0.000725,  13.810
   407.8,0.001177,0.001093,-0.000449,0.000688,  13.809
   408.0,0.001180,0.001096,-0.000422,0.000701,  13.808
   408.2,0.001187,0.001093,-0.000351,0.000725,  13.807
   408.4,0.001193,0.001094,-0.000297,0.000688,  13.809
   408.6,0.001196,0.001101,-0.000315,0.000701,  13.813
   408.8,0.001200,0.001101,-0.000334,0.000739,  13.810
   409.0,0.001203,0.001103,-0.000414,0.000701,  13.808
   409.2,0.001206,0.001111,-0.000397,0.000701,  13.812
   409.4,0.001203,0.001111,-0.000361,0.000739,  13.814
   409.6,0.001203,0.001109,-0.000316,0.000739,  13.817
   409.8,0.001206,0.001116,-0.000263,0.000715,  13.815
   410.0,0.001203,0.001111,-0.000192,0.000701,  13.818
   410.2,0.001203,0.001111,-0.000138,0.000739,  13.818
   410.4,0.001206,0.001116,-0.000165,0.000715,  13.818
   410.6,0.001203,0.001115,-0.000244,0.000752,  13.815
   410.8,0.001203,0.001112,-0.000351,0.000752,  13.816
   411.0,0.001206,0.001109,-0.000378,0.000715,  13.815
   411.2,0.001203,0.001103,-0.000386,0.000728,  13.819
   411.4,0.001206,0.001103,-0.000351,0.000752,  13.820
   411.6,0.001206,0.001104,-0.000307,0.000715,  13.816
   411.8,0.001206,0.001096,-0.000324,0.000715,  13.815
   412.0,0.001206,0.001101,-0.000361,0.000739,  13.820
   412.2,0.001203,0.001107,-0.000432,0.000701,  13.818
   412.4,0.001200,0.001104,-0.000432,0.000701,  13.819
   412.6,0.001200,0.001109,-0.000422,0.000739,  13.817
   412.8,0.001200,0.001112,-0.000378,0.000701,  13.819
   413.0,0.001200,0.001109,-0.000361,0.000701,  13.816
   413.2,0.001200,0.001107,-0.000368,0.000725,  13.816
   413.4,0.001200,0.001105,-0.000351,0.000688,  13.819
   413.6,0.001196,0.001102,-0.000315,0.000701,  13.821
   413.8,0.001196,0.001105,-0.000261,0.000725,  13.815
   414.0,0.001196,0.001099,-0.000207,0.000688,  13.819
   414.2,0.001193,0.001105,-0.000163,0.000688,  13.813
   414.4,0.001187,0.001100,-0.000127,0.000712,  13.818
   414.6,0.001184,0.001095,-0.000109,0.000661,  13.816
   414.8,0.001175,0.001099,-0.000596,0.000661,  13.817
   415.0,0.001166,0.001089,-0.001311,0.000699,  13.819
   415.2,0.001159,0.001086,-0.002288,0.000648,  13.819
   415.4,0.001147,0.001076,-0.002324,0.000634,  13.816
   415.6,0.001141,0.001070,-0.002045,0.000672,  13.816
   415.8,0.001135,0.001070,-0.001448,0.000648,  13.817
   416.0,0.001125,0.001066,-0.001228,0.000634,  13.810
   416.2,0.001122,0.001055,-0.001042,0.000658,  13.813
   416.4,0.001119,0.001056,-0.000865,0.000634,  13.814
   416.6,0.001113,0.001055,-0.000768,0.000621,  13.813
   416.8,0.001110,0.001045,-0.000716,0.000645,  13.814
   417.0,0.001107,0.001040,-0.000708,0.000621,  13.811
   417.2,0.001099,0.001041,-0.000610,0.000607,  13.817
   417.4,0.001100,0.001033,-0.000495,0.000645,  13.813
   417.6,0.001097,0.001030,-0.000362,0.000607,  13.814
   417.8,0.001094,0.001030,-0.000328,0.000607,  13.811
   418.0,0.001088,0.001023,-0.000380,0.000632,  13.811
   418.2,0.001088,0.001023,-0.000451,0.000594,  13.816
   418.4,0.001088,0.001019,-0.000414,0.000607,  13.817
   418.6,0.001088,0.001011,-0.000343,0.000632,  13.812
   418.8,0.001088,0.001014,-0.000263,0.000632,  13.813
   419.0,0.001088,0.001015,-0.000217,0.000594,  13.815
   419.2,0.001088,0.001010,-0.000163,0.000594,  13.811
   419.4,0.001088,0.001012,-0.000094,0.000632,  13.815
   419.6,0.001085,0.001014,-0.000138,0.000594,  13.813
   419.8,0.001082,0.001009,-0.000253,0.000632,  13.809
   420.0,0.001079,0.001011,-0.000397,0.000632,  13.809
   420.2,0.001079,0.001017,-0.000424,0.000594,  13.811
   420.4,0.001079,0.001009,-0.000424,0.000594,  13.809
   420.6,0.001068,0.001004,-0.000389,0.000618,  13.809
   420.8,0.001065,0.001003,-0.000318,0.000581,  13.809
   421.0,0.001062,0.000997,-0.000316,0.000594,  13.808
   421.2,0.001058,0.000997,-0.000316,0.000632,  13.809
   421.4,0.001058,0.001005,-0.000324,0.000594,  13.808
   421.6,0.001062,0.000999,-0.000342,0.000607,  13.809
   421.8,0.001065,0.001003,-0.000359,0.000632,  13.810
   422.0,0.001062,0.001001,-0.000386,0.000594,  13.810
   422.2,0.001059,0.001001,-0.000368,0.000594,  13.809
   422.4,0.001059,0.000998,-0.000376,0.000605,  13.806
   422.6,0.001056,0.000997,-0.000334,0.000567,  13.809
   422.8,0.001050,0.000994,-0.000334,0.000581,  13.809
   423.0,0.001057,0.000988,-0.000368,0.000605,  13.809
   423.2,0.001057,0.000992,-0.000405,0.000567,  13.806
   423.4,0.001054,0.000989,-0.000378,0.000581,  13.807
   423.6,0.001061,0.000981,-0.000342,0.000605,  13.809
   423.8,0.001061,0.000987,-0.000271,0.000567,  13.810
   424.0,0.001054,0.000989,-0.000288,0.000581,  13.810
   424.2,0.001051,0.000984,-0.000342,0.000605,  13.809
   424.4,0.001051,0.000983,-0.000457,0.000567,  13.806
   424.6,0.001051,0.000984,-0.000474,0.000581,  13.808
   424.8,0.001048,0.000981,-0.000482,0.000605,  13.806
   425.0,0.001042,0.000978,-0.000474,0.000567,  13.807
   425.2,0.001038,0.000977,-0.000491,0.000581,  13.803
   425.4,0.001035,0.000974,-0.000499,0.000605,  13.807
   425.6,0.001038,0.000979,-0.000499,0.000567,  13.809
   425.8,0.001031,0.000977,-0.000517,0.000567,  13.804
   426.0,0.001038,0.000976,-0.000517,0.000591,  13.809
   426.2,0.001042,0.000981,-0.000491,0.000554,  13.807
   426.4,0.001042,0.000983,-0.000457,0.000567,  13.808
   426.6,0.001038,0.000977,-0.000420,0.000605,  13.802
   426.8,0.001042,0.000983,-0.000368,0.000567,  13.811
   427.0,0.001042,0.000986,-0.000316,0.000581,  13.807
   427.2,0.001045,0.000980,-0.000324,0.000567,  13.806
   427.4,0.001048,0.000977,-0.000334,0.000530,  13.811
   427.6,0.001045,0.000982,-0.000457,0.000581,  13.814
   427.8,0.001045,0.000979,-0.000634,0.000543,  13.812
   428.0,0.001040,0.000981,-0.000881,0.000567,  13.812
   428.2,0.001030,0.000984,-0.000925,0.000581,  13.810
   428.4,0.001030,0.000981,-0.000881,0.000581,  13.812
   428.6,0.001032,0.000984,-0.000733,0.000567,  13.810
   428.8,0.001030,0.000992,-0.000706,0.000581,  13.808
   429.0,0.001055,0.000993,-0.000697,0.000594,  13.813
   429.2,0.001067,0.001001,-0.000714,0.000607,  13.812
   429.4,0.001069,0.001019,-0.000756,0.000621,  13.811
   429.6,0.001086,0.001021,-0.000755,0.000634,  13.819
   429.8,0.001098,0.001031,-0.000745,0.000648,  13.817
   430.0,0.001104,0.001042,-0.000728,0.000661,  13.816
   430.2,0.001118,0.001041,-0.000692,0.000661,  13.815
   430.4,0.001127,0.001051,-0.000648,0.000661,  13.815
   430.6,0.001133,0.001056,-0.000621,0.000661,  13.815
   430.8,0.001136,0.001061,-0.000594,0.000661,  13.818
   431.0,0.001143,0.001065,-0.000577,0.000661,  13.814
   431.2,0.001146,0.001062,-0.000569,0.000674,  13.815
   431.4,0.001149,0.001073,-0.000578,0.000688,  13.819
   431.6,0.001162,0.001069,-0.000622,0.000688,  13.817
   431.8,0.001162,0.001077,-0.000676,0.000701,  13.816
   432.0,0.001166,0.001086,-0.000666,0.000715,  13.821
   432.2,0.001169,0.001091,-0.000622,0.000688,  13.817
   432.4,0.001175,0.001092,-0.000578,0.000688,  13.822
   432.6,0.001167,0.001088,-0.000843,0.000701,  13.823
   432.8,0.001160,0.001091,-0.001275,0.000688,  13.819
   433.0,0.001163,0.001092,-0.001849,0.000688,  13.819
   433.2,0.001167,0.001094,-0.002200,0.000701,  13.823
   433.4,0.001167,0.001091,-0.002552,0.000688,  13.824
   433.6,0.001170,0.001090,-0.002859,0.000688,  13.821
   433.8,0.001167,0.001103,-0.002762,0.000701,  13.825
   434.0,0.001175,0.001103,-0.002437,0.000688,  13.821
   434.2,0.001178,0.001096,-0.001902,0.000688,  13.822
   434.4,0.001175,0.001091,-0.001673,0.000701,  13.823
   434.6,0.001175,0.001090,-0.001470,0.000688,  13.826
   434.8,0.001167,0.001090,-0.001303,0.000688,  13.827
   435.0,0.001170,0.001090,-0.001117,0.000701,  13.824
   435.2,0.001170,0.001090,-0.000966,0.000701,  13.822
   435.4,0.001163,0.001093,-0.000816,0.000701,  13.821
   435.6,0.001170,0.001097,-0.000719,0.000701,  13.824
   435.8,0.001170,0.001094,-0.000682,0.000701,  13.827
   436.0,0.001174,0.001096,-0.000682,0.000701,  13.821
   436.2,0.001174,0.001101,-0.000682,0.000701,  13.821
   436.4,0.001174,0.001098,-0.000744,0.000701,  13.823
   436.6,0.001177,0.001100,-0.000824,0.000701,  13.826
   436.8,0.001174,0.001098,-0.000770,0.000701,  13.825
   437.0,0.001170,0.001090,-0.000690,0.000688,  13.827
   437.2,0.001170,0.001090,-0.000573,0.000674,  13.826
   437.4,0.001167,0.001088,-0.000564,0.000688,  13.827
   437.6,0.001161,0.001080,-0.000617,0.000674,  13.826
   437.8,0.001158,0.001083,-0.000690,0.000674,  13.826
   438.0,0.001155,0.001081,-0.000709,0.000674,  13.826
   438.2,0.001146,0.001070,-0.000726,0.000661,  13.828
   438.4,0.001139,0.001072,-0.000728,0.000648,  13.827
   438.6,0.001133,0.001063,-0.000745,0.000648,  13.828
   438.8,0.001124,0.001053,-0.000949,0.000634,  13.828
   439.0,0.001121,0.001048,-0.001223,0.000621,  13.829
   439.2,0.001115,0.001040,-0.001592,0.000634,  13.826
   439.4,0.001105,0.001030,-0.001556,0.000634,  13.827
   439.6,0.001102,0.001028,-0.001388,0.000621,  13.825
   439.8,0.001099,0.001021,-0.001035,0.000621,  13.825
   440.0,0.001093,0.001016,-0.000947,0.000621,  13.828
   440.2,0.001090,0.001014,-0.000920,0.000594,  13.828
   440.4,0.001076,0.001009,-0.000939,0.000594,  13.828
   440.6,0.001073,0.001014,-0.000851,0.000594,  13.829
   440.8,0.001070,0.001014,-0.000761,0.000581,  13.827
   441.0,0.001056,0.001012,-0.000611,0.000581,  13.826
   441.2,0.001055,0.001007,-0.000611,0.000581,  13.825
   441.4,0.001051,0.000999,-0.000682,0.000581,  13.828
   441.6,0.001048,0.000997,-0.000799,0.000581,  13.825
   441.8,0.001053,0.000997,-0.000799,0.000581,  13.826
   442.0,0.001053,0.000996,-0.000789,0.000618,  13.822
   442.2,0.001050,0.000996,-0.000736,0.000581,  13.822
   442.4,0.001047,0.000999,-0.000886,0.000581,  13.824
   442.6,0.001043,0.000993,-0.001150,0.000618,  13.823
   442.8,0.001043,0.000993,-0.001503,0.000581,  13.821
   443.0,0.001040,0.000991,-0.001493,0.000581,  13.824
   443.2,0.001040,0.000988,-0.001369,0.000605,  13.821
   443.4,0.001033,0.000985,-0.001079,0.000567,  13.819
   443.6,0.001037,0.000992,-0.000991,0.000581,  13.823
   443.8,0.001037,0.000992,-0.000955,0.000605,  13.822
   444.0,0.001027,0.000987,-0.000945,0.000567,  13.821
   444.2,0.001034,0.000988,-0.000874,0.000581,  13.820
   444.4,0.001027,0.000992,-0.000796,0.000605,  13.818
   444.6,0.001030,0.000990,-0.000742,0.000567,  13.821
   444.8,0.001022,0.000988,-0.000759,0.000581,  13.823
   445.0,0.001027,0.000983,-0.000805,0.000605,  13.825
   445.2,0.001030,0.000987,-0.000912,0.000567,  13.821
   445.4,0.001025,0.000990,-0.000956,0.000581,  13.820
   445.6,0.001033,0.000987,-0.000975,0.000605,  13.822
   445.8,0.001036,0.000992,-0.001002,0.000605,  13.823
   446.0,0.001025,0.000992,-0.000958,0.000581,  13.822
   446.2,0.001030,0.000987,-0.000895,0.000581,  13.824
   446.4,0.001033,0.000987,-0.000815,0.000605,  13.824
   446.6,0.001027,0.000988,-0.000788,0.000581,  13.826
   446.8,0.001031,0.000985,-0.000770,0.000618,  13.826
   447.0,0.001042,0.000990,-0.000780,0.000605,  13.824
   447.2,0.001042,0.000995,-0.000816,0.000567,  13.825
   447.4,0.001042,0.000989,-0.000763,0.000581,  13.819
   447.6,0.001045,0.000995,-0.000674,0.000605,  13.823
   447.8,0.001045,0.000995,-0.000584,0.000567,  13.824
   448.0,0.001037,0.000990,-0.000575,0.000581,  13.824
   448.2,0.001033,0.000995,-0.000611,0.000605,  13.824
   448.4,0.001030,0.000996,-0.000692,0.000567,  13.824
   448.6,0.001037,0.000988,-0.000701,0.000567,  13.822
   448.8,0.001040,0.000994,-0.000711,0.000591,  13.821
   449.0,0.001030,0.000989,-0.000737,0.000554,  13.825
   449.2,0.001030,0.000989,-0.000693,0.000554,  13.824
   449.4,0.001033,0.000989,-0.000632,0.000591,  13.820
   449.6,0.001030,0.000981,-0.000569,0.000554,  13.817
   449.8,0.001037,0.000987,-0.000550,0.000591,  13.823
   450.0,0.001040,0.000983,-0.000532,0.000629,  13.820
   450.2,0.001037,0.000986,-0.000532,0.000578,  13.821
   450.4,0.001037,0.000986,-0.000569,0.000616,  13.821
   450.6,0.001048,0.000983,-0.000666,0.000616,  13.820
   450.8,0.001045,0.000985,-0.000783,0.000578,  13.822
   451.0,0.001045,0.000987,-0.000960,0.000578,  13.824
   451.2,0.001055,0.000982,-0.001232,0.000591,  13.819
   451.4,0.001052,0.000991,-0.001541,0.000567,  13.825
   451.6,0.001049,0.000989,-0.001514,0.000567,  13.825
   451.8,0.001048,0.000983,-0.001338,0.000591,  13.826
   452.0,0.001051,0.000987,-0.001046,0.000567,  13.825
   452.2,0.001061,0.000987,-0.000931,0.000581,  13.819
   452.4,0.001068,0.000988,-0.000868,0.000645,  13.823
   452.6,0.001077,0.000995,-0.000840,0.000621,  13.824
   452.8,0.001076,0.001007,-0.000813,0.000621,  13.828
   453.0,0.001085,0.001009,-0.000830,0.000672,  13.829
   453.2,0.001094,0.001019,-0.000909,0.000648,  13.826
   453.4,0.001100,0.001030,-0.000900,0.000648,  13.825
   453.6,0.001110,0.001036,-0.000881,0.000699,  13.826
   453.8,0.001116,0.001043,-0.000854,0.000661,  13.828
   454.0,0.001122,0.001047,-0.000977,0.000661,  13.823
   454.2,0.001125,0.001047,-0.001188,0.000699,  13.828
   454.4,0.001131,0.001051,-0.001437,0.000661,  13.828
   454.6,0.001135,0.001053,-0.001427,0.000661,  13.829
   454.8,0.001138,0.001053,-0.001314,0.000699,  13.828
   455.0,0.001141,0.001052,-0.001120,0.000699,  13.830
   455.2,0.001144,0.001060,-0.001111,0.000661,  13.830
   455.4,0.001141,0.001061,-0.001130,0.000674,  13.826
   455.6,0.001144,0.001063,-0.001210,0.000712,  13.832
   455.8,0.001147,0.001067,-0.001281,0.000674,  13.834
   456.0,0.001150,0.001069,-0.001411,0.000712,  13.833
   456.2,0.001153,0.001071,-0.001578,0.000712,  13.835
   456.4,0.001153,0.001077,-0.001630,0.000674,  13.833
   456.6,0.001156,0.001073,-0.001595,0.000674,  13.829
   456.8,0.001159,0.001079,-0.001551,0.000712,  13.833
   457.0,0.001156,0.001080,-0.001455,0.000674,  13.834
   457.2,0.001156,0.001074,-0.001385,0.000674,  13.833
   457.4,0.001152,0.001082,-0.001306,0.000712,  13.829
   457.6,0.001152,0.001084,-0.001235,0.000674,  13.832
   457.8,0.001152,0.001081,-0.001218,0.000674,  13.834
   458.0,0.001148,0.001087,-0.001252,0.000712,  13.835
   458.2,0.001148,0.001089,-0.001289,0.000674,  13.836
   458.4,0.001155,0.001089,-0.001271,0.000674,  13.835
   458.6,0.001155,0.001087,-0.001245,0.000712,  13.834
   458.8,0.001155,0.001090,-0.001200,0.000674,  13.834
   459.0,0.001155,0.001088,-0.001191,0.000674,  13.831
   459.2,0.001155,0.001088,-0.001182,0.000712,  13.836
   459.4,0.001155,0.001085,-0.001174,0.000674,  13.835
   459.6,0.001155,0.001085,-0.001120,0.000674,  13.834
   459.8,0.001155,0.001085,-0.001040,0.000712,  13.834
   460.0,0.001155,0.001091,-0.000959,0.000674,  13.832
   460.2,0.001155,0.001092,-0.000959,0.000674,  13.832
   460.4,0.001162,0.001092,-0.001011,0.000712,  13.833
   460.6,0.001159,0.001087,-0.001074,0.000674,  13.833
   460.8,0.001156,0.001081,-0.001065,0.000674,  13.835
   461.0,0.001159,0.001079,-0.001030,0.000712,  13.834
   461.2,0.001153,0.001080,-0.000986,0.000661,  13.834
   461.4,0.001143,0.001075,-0.001119,0.000661,  13.833
   461.6,0.001132,0.001075,-0.001339,0.000699,  13.834
   461.8,0.001123,0.001070,-0.001622,0.000648,  13.833
   462.0,0.001118,0.001064,-0.001570,0.000634,  13.831
   462.2,0.001112,0.001061,-0.001429,0.000672,  13.835
   462.4,0.001098,0.001051,-0.001182,0.000648,  13.835
   462.6,0.001102,0.001041,-0.001076,0.000634,  13.831
   462.8,0.001093,0.001035,-0.001005,0.000658,  13.837
   463.0,0.001082,0.001033,-0.000978,0.000634,  13.837
   463.2,0.001090,0.001036,-0.000934,0.000621,  13.836
   463.4,0.001076,0.001032,-0.000917,0.000645,  13.834
   463.6,0.001073,0.001029,-0.000917,0.000645,  13.833
   463.8,0.001067,0.001026,-0.000917,0.000607,  13.833
   464.0,0.001065,0.001021,-0.000926,0.000594,  13.833
   464.2,0.001062,0.001013,-0.000972,0.000632,  13.829
   464.4,0.001056,0.001005,-0.000955,0.000581,  13.833
   464.6,0.001053,0.000995,-0.000911,0.000618,  13.836
   464.8,0.001050,0.000991,-0.000874,0.000618,  13.833
   465.0,0.001043,0.000991,-0.000811,0.000581,  13.830
   465.2,0.001037,0.000983,-0.000829,0.000581,  13.835
   465.4,0.001034,0.000980,-0.000873,0.000605,  13.832
   465.6,0.001031,0.000982,-0.000952,0.000567,  13.836
   465.8,0.001028,0.000976,-0.000925,0.000581,  13.834
   466.0,0.001028,0.000968,-0.000888,0.000605,  13.833
   466.2,0.001028,0.000974,-0.000818,0.000567,  13.831
   466.4,0.001025,0.000971,-0.000808,0.000567,  13.830
   466.6,0.001022,0.000971,-0.000818,0.000591,  13.834
   466.8,0.001019,0.000970,-0.000862,0.000554,  13.829
   467.0,0.001016,0.000972,-0.000896,0.000567,  13.830
   467.2,0.001012,0.000967,-0.000950,0.000605,  13.830
   467.4,0.001009,0.000967,-0.001004,0.000567,  13.829
   467.6,0.001009,0.000970,-0.001040,0.000581,  13.831
   467.8,0.001012,0.000964,-0.001119,0.000605,  13.833
   468.0,0.001005,0.000970,-0.001199,0.000567,  13.833
   468.2,0.001008,0.000981,-0.001199,0.000581,  13.832
   468.4,0.001008,0.000981,-0.001163,0.000605,  13.828
   468.6,0.001001,0.000981,-0.001109,0.000567,  13.830
   468.8,0.001008,0.000981,-0.001055,0.000581,  13.831
   469.0,0.001008,0.000983,-0.001002,0.000605,  13.830
   469.2,0.001008,0.000986,-0.000923,0.000567,  13.831
   469.4,0.001016,0.000986,-0.000940,0.000567,  13.828
   469.6,0.001019,0.000985,-0.001002,0.000591,  13.831
   469.8,0.001019,0.000979,-0.001109,0.000554,  13.833
   470.0,0.001019,0.000968,-0.001100,0.000554,  13.831
   470.2,0.001019,0.000965,-0.001048,0.000591,  13.829
   470.4,0.001014,0.000965,-0.000969,0.000554,  13.833
   470.6,0.001019,0.000968,-0.000952,0.000554,  13.832
   470.8,0.001019,0.000965,-0.000978,0.000591,  13.833
   471.0,0.001011,0.000964,-0.001032,0.000540,  13.830
   471.2,0.001022,0.000971,-0.001032,0.000540,  13.831
   471.4,0.001019,0.000971,-0.001041,0.000578,  13.830
   471.6,0.001016,0.000963,-0.001067,0.000540,  13.830
   471.8,0.001016,0.000971,-0.001048,0.000540,  13.830
   472.0,0.001016,0.000967,-0.000986,0.000591,  13.828
   472.2,0.001012,0.000965,-0.000933,0.000591,  13.831
   472.4,0.001012,0.000965,-0.000967,0.000554,  13.830
   472.6,0.001016,0.000962,-0.001004,0.000554,  13.834
   472.8,0.001016,0.000962,-0.001076,0.000578,  13.830
   473.0,0.001012,0.000964,-0.001076,0.000554,  13.827
   473.2,0.001006,0.000960,-0.001032,0.000605,  13.830
   473.4,0.001009,0.000963,-0.000961,0.000605,  13.833
   473.6,0.001012,0.000968,-0.000881,0.000581,  13.829
   473.8,0.001012,0.000970,-0.000802,0.000594,  13.828
   474.0,0.001016,0.000970,-0.000748,0.000605,  13.829
   474.2,0.001016,0.000974,-0.000695,0.000567,  13.831
   474.4,0.001012,0.000979,-0.000712,0.000581,  13.833
   474.6,0.001016,0.000978,-0.000748,0.000605,  13.831
   474.8,0.001016,0.000978,-0.000821,0.000567,  13.835
   475.0,0.001012,0.000981,-0.000804,0.000567,  13.833
   475.2,0.001016,0.000976,-0.000802,0.000591,  13.835
   475.4,0.001008,0.000977,-0.000785,0.000554,  13.831
   475.6,0.001008,0.000979,-0.000802,0.000567,  13.833
   475.8,0.001025,0.000978,-0.000819,0.000618,  13.833
   476.0,0.001034,0.000986,-0.000890,0.000594,  13.831
   476.2,0.001054,0.000990,-0.000952,0.000607,  13.835
   476.4,0.001066,0.000994,-0.001013,0.000658,  13.835
   476.6,0.001079,0.001001,-0.001084,0.000634,  13.832
   476.8,0.001081,0.001010,-0.001109,0.000634,  13.837
   477.0,0.001079,0.001015,-0.001082,0.000672,  13.837
   477.2,0.001086,0.001026,-0.001046,0.000648,  13.836
   477.4,0.001099,0.001033,-0.001027,0.000648,  13.839
   477.6,0.001110,0.001040,-0.001000,0.000685,  13.841
   477.8,0.001113,0.001041,-0.000983,0.000661,  13.837
   478.0,0.001113,0.001051,-0.001027,0.000661,  13.836
   478.2,0.001126,0.001056,-0.001081,0.000699,  13.837
   478.4,0.001133,0.001052,-0.001178,0.000661,  13.838
   478.6,0.001128,0.001052,-0.001169,0.000661,  13.841
   478.8,0.001124,0.001057,-0.001125,0.000699,  13.843
   479.0,0.001124,0.001060,-0.001071,0.000674,  13.840
   479.2,0.001124,0.001062,-0.001071,0.000674,  13.844
   479.4,0.001127,0.001067,-0.001115,0.000712,  13.843
   479.6,0.001120,0.001064,-0.001169,0.000688,  13.845
   479.8,0.001130,0.001066,-0.001142,0.000688,  13.845
   480.0,0.001127,0.001063,-0.001081,0.000712,  13.844
   480.2,0.001127,0.001065,-0.001000,0.000674,  13.847
   480.4,0.001135,0.001063,-0.000964,0.000674,  13.848
   480.6,0.001135,0.001063,-0.000947,0.000712,  13.849
   480.8,0.001142,0.001063,-0.000964,0.000674,  13.847
   481.0,0.001146,0.001066,-0.000989,0.000674,  13.849
   481.2,0.001143,0.001063,-0.000991,0.000712,  13.849
   481.4,0.001142,0.001062,-0.001070,0.000712,  13.847
   481.6,0.001145,0.001067,-0.001060,0.000674,  13.849
   481.8,0.001148,0.001066,-0.001016,0.000688,  13.848
   482.0,0.001144,0.001069,-0.000955,0.000712,  13.849
   482.2,0.001147,0.001079,-0.000981,0.000674,  13.849
   482.4,0.001151,0.001076,-0.001051,0.000712,  13.852
   482.6,0.001144,0.001078,-0.001123,0.000712,  13.851
   482.8,0.001147,0.001081,-0.001248,0.000674,  13.852
   483.0,0.001147,0.001079,-0.001248,0.000674,  13.849
   483.2,0.001147,0.001074,-0.001221,0.000712,  13.852
   483.4,0.001147,0.001076,-0.001158,0.000674,  13.848
   483.6,0.001144,0.001076,-0.001104,0.000674,  13.853
   483.8,0.001136,0.001070,-0.001095,0.000712,  13.856
   484.0,0.001136,0.001078,-0.001060,0.000674,  13.855
   484.2,0.001136,0.001080,-0.001166,0.000674,  13.853
   484.4,0.001126,0.001073,-0.001351,0.000674,  13.851
   484.6,0.001123,0.001078,-0.001608,0.000661,  13.853
   484.8,0.001127,0.001073,-0.001564,0.000661,  13.857
   485.0,0.001121,0.001069,-0.001422,0.000648,  13.855
   485.2,0.001115,0.001067,-0.001175,0.000648,  13.855
   485.4,0.001108,0.001060,-0.001070,0.000634,  13.858
   485.6,0.001102,0.001050,-0.000999,0.000621,  13.858
   485.8,0.001093,0.001040,-0.000955,0.000621,  13.854
   486.0,0.001081,0.001032,-0.000901,0.000621,  13.858
   486.2,0.001074,0.001024,-0.000857,0.000594,  13.856
   486.4,0.001065,0.001025,-0.000839,0.000594,  13.859
   486.6,0.001059,0.001018,-0.000857,0.000594,  13.858
   486.8,0.001053,0.001013,-0.000884,0.000581,  13.856
   487.0,0.001047,0.001006,-0.000964,0.000581,  13.856
   487.2,0.001043,0.000999,-0.001008,0.000581,  13.860
   487.4,0.001037,0.000989,-0.001044,0.000567,  13.860
   487.6,0.001031,0.000983,-0.001098,0.000567,  13.859
   487.8,0.001025,0.000986,-0.001133,0.000567,  13.858
   488.0,0.001019,0.000979,-0.001140,0.000554,  13.859
   488.2,0.001011,0.000977,-0.001115,0.000554,  13.860
   488.4,0.001016,0.000978,-0.001115,0.000554,  13.861
   488.6,0.001012,0.000978,-0.001106,0.000554,  13.860
   488.8,0.001008,0.000978,-0.001071,0.000554,  13.856
   489.0,0.001012,0.000981,-0.001230,0.000554,  13.859
   489.2,0.001012,0.000983,-0.001512,0.000554,  13.858
   489.4,0.001016,0.000978,-0.001899,0.000554,  13.861
   489.6,0.001012,0.000978,-0.001925,0.000554,  13.861
   489.8,0.001009,0.000978,-0.001820,0.000554,  13.859
   490.0,0.001017,0.000972,-0.001617,0.000540,  13.858
   490.2,0.001014,0.000975,-0.001636,0.000540,  13.861
   490.4,0.001007,0.000967,-0.001682,0.000578,  13.857
   490.6,0.001015,0.000962,-0.001815,0.000616,  13.858
   490.8,0.001015,0.000964,-0.001806,0.000540,  13.859
   491.0,0.001001,0.000959,-0.001762,0.000591,  13.861
   491.2,0.001001,0.000956,-0.001674,0.000578,  13.863
   491.4,0.001004,0.000960,-0.001621,0.000554,  13.858
   491.6,0.001004,0.000956,-0.001532,0.000591,  13.860
   491.8,0.001004,0.000957,-0.001462,0.000591,  13.862
   492.0,0.001007,0.000960,-0.001399,0.000567,  13.858
   492.2,0.001007,0.000963,-0.001653,0.000567,  13.862
   492.4,0.001011,0.000963,-0.002040,0.000591,  13.859
   492.6,0.001011,0.000968,-0.002550,0.000554,  13.856
   492.8,0.001011,0.000968,-0.002506,0.000554,  13.861
   493.0,0.001011,0.000971,-0.002277,0.000591,  13.862
   493.2,0.001007,0.000975,-0.001837,0.000554,  13.859
   493.4,0.001004,0.000975,-0.001679,0.000554,  13.861
   493.6,0.001004,0.000973,-0.001554,0.000591,  13.856
   493.8,0.001004,0.000970,-0.001458,0.000554,  13.862
   494.0,0.001001,0.000967,-0.001414,0.000567,  13.860
   494.2,0.001001,0.000964,-0.001414,0.000605,  13.856
   494.4,0.001004,0.000964,-0.001477,0.000567,  13.858
   494.6,0.001001,0.000961,-0.001460,0.000567,  13.857
   494.8,0.000998,0.000962,-0.001451,0.000591,  13.855
   495.0,0.000998,0.000960,-0.001433,0.000540,  13.859
   495.2,0.000995,0.000962,-0.001362,0.000540,  13.855
   495.4,0.000995,0.000965,-0.001292,0.000578,  13.859
   495.6,0.000995,0.000965,-0.001177,0.000527,  13.859
   495.8,0.000998,0.000959,-0.001088,0.000527,  13.860
   496.0,0.000998,0.000956,-0.001008,0.000578,  13.856
   496.2,0.000998,0.000955,-0.000937,0.000540,  13.858
   496.4,0.000992,0.000955,-0.001043,0.000540,  13.856
   496.6,0.000992,0.000948,-0.001255,0.000578,  13.854
   496.8,0.000989,0.000951,-0.001573,0.000540,  13.857
   497.0,0.000986,0.000953,-0.001600,0.000540,  13.859
   497.2,0.000986,0.000953,-0.001547,0.000578,  13.860
   497.4,0.000986,0.000953,-0.001372,0.000540,  13.858
   497.6,0.000981,0.000951,-0.001355,0.000540,  13.860
   497.8,0.000989,0.000951,-0.001372,0.000578,  13.860
   498.0,0.000985,0.000949,-0.001391,0.000540,  13.862
   498.2,0.000988,0.000958,-0.001356,0.000540,  13.860
   498.4,0.000988,0.000960,-0.001347,0.000578,  13.861
   498.6,0.000980,0.000952,-0.001322,0.000554,  13.862
   498.8,0.000980,0.000955,-0.001278,0.000567,  13.864
   499.0,0.000988,0.000962,-0.001232,0.000605,  13.865
   499.2,0.000997,0.000964,-0.001196,0.000594,  13.862
   499.4,0.001012,0.000979,-0.001150,0.000607,  13.863
   499.6,0.001028,0.000991,-0.001087,0.000645,  13.866
   499.8,0.001043,0.000994,-0.001024,0.000658,  13.863
   500.0,0.001056,0.001006,-0.001005,0.000634,  13.865
   500.2,0.001062,0.001013,-0.001014,0.000634,  13.863
   500.4,0.001071,0.001022,-0.001033,0.000672,  13.866
   500.6,0.001081,0.001027,-0.001025,0.000648,  13.865
   500.8,0.001084,0.001026,-0.001033,0.000685,  13.865
   501.0,0.001090,0.001034,-0.001060,0.000699,  13.865
   501.2,0.001089,0.001034,-0.001077,0.000661,  13.863
   501.4,0.001089,0.001034,-0.001076,0.000661,  13.862
   501.6,0.001095,0.001038,-0.001049,0.000699,  13.869
   501.8,0.001098,0.001043,-0.001014,0.000661,  13.867
   502.0,0.001105,0.001045,-0.001032,0.000661,  13.869
   502.2,0.001119,0.001053,-0.001051,0.000699,  13.868
   502.4,0.001125,0.001058,-0.001104,0.000674,  13.871
   502.6,0.001136,0.001061,-0.001156,0.000674,  13.871
   502.8,0.001142,0.001063,-0.001225,0.000712,  13.872
   503.0,0.001142,0.001057,-0.001321,0.000688,  13.874
   503.2,0.001138,0.001061,-0.001358,0.000701,  13.870
   503.4,0.001141,0.001060,-0.001428,0.000725,  13.871
   503.6,0.001144,0.001062,-0.001441,0.000688,  13.869
   503.8,0.001141,0.001067,-0.001389,0.000688,  13.871
   504.0,0.001141,0.001065,-0.001336,0.000712,  13.871
   504.2,0.001144,0.001066,-0.001230,0.000674,  13.869
   504.4,0.001144,0.001071,-0.001221,0.000674,  13.868
   504.6,0.001144,0.001073,-0.001230,0.000674,  13.874
   504.8,0.001144,0.001067,-0.001284,0.000674,  13.873
   505.0,0.001141,0.001069,-0.001238,0.000688,  13.875
   505.2,0.001133,0.001073,-0.001175,0.000688,  13.874
   505.4,0.001133,0.001068,-0.001060,0.000688,  13.875
   505.6,0.001130,0.001073,-0.001024,0.000701,  13.876
   505.8,0.001123,0.001076,-0.001041,0.000688,  13.875
   506.0,0.001118,0.001068,-0.001060,0.000688,  13.869
   506.2,0.001126,0.001073,-0.001041,0.000701,  13.873
   506.4,0.001126,0.001076,-0.001005,0.000688,  13.876
   506.6,0.001121,0.001068,-0.000961,0.000688,  13.876
   506.8,0.001121,0.001073,-0.001014,0.000701,  13.873
   507.0,0.001129,0.001070,-0.001112,0.000688,  13.878
   507.2,0.001121,0.001070,-0.001273,0.000688,  13.878
   507.4,0.001126,0.001070,-0.001441,0.000688,  13.878
   507.6,0.001127,0.001067,-0.001661,0.000712,  13.876
   507.8,0.001124,0.001073,-0.001933,0.000736,  13.879
   508.0,0.001124,0.001070,-0.001906,0.000674,  13.880
   508.2,0.001124,0.001068,-0.001784,0.000699,  13.881
   508.4,0.001131,0.001063,-0.001539,0.000699,  13.881
   508.6,0.001122,0.001059,-0.001433,0.000661,  13.879
   508.8,0.001110,0.001054,-0.001337,0.000685,  13.882
   509.0,0.001108,0.001045,-0.001301,0.000685,  13.879
   509.2,0.001099,0.001041,-0.001249,0.000661,  13.879
   509.4,0.001079,0.001038,-0.001178,0.000648,  13.878
   509.6,0.001065,0.001033,-0.001117,0.000658,  13.881
   509.8,0.001062,0.001034,-0.001055,0.000634,  13.884
   510.0,0.001062,0.001032,-0.001029,0.000621,  13.883
   510.2,0.001062,0.001024,-0.001029,0.000645,  13.881
   510.4,0.001059,0.001019,-0.001055,0.000607,  13.882
   510.6,0.001057,0.001014,-0.001021,0.000645,  13.886
   510.8,0.001061,0.001006,-0.000985,0.000669,  13.882
   511.0,0.001058,0.001007,-0.000940,0.000632,  13.881
   511.2,0.001042,0.001002,-0.000958,0.000669,  13.881
   511.4,0.001038,0.000997,-0.000985,0.000656,  13.883
   511.6,0.001035,0.000989,-0.001055,0.000618,  13.882
   511.8,0.001032,0.000989,-0.001285,0.000656,  13.882
   512.0,0.001029,0.000983,-0.001613,0.000642,  13.885
   512.2,0.001026,0.000987,-0.002037,0.000605,  13.882
   512.4,0.001027,0.000979,-0.001993,0.000656,  13.884
   512.6,0.001020,0.000976,-0.001806,0.000642,  13.884
   512.8,0.001020,0.000976,-0.001425,0.000605,  13.886
   513.0,0.001027,0.000976,-0.001311,0.000642,  13.887
   513.2,0.001020,0.000971,-0.001266,0.000629,  13.884
   513.4,0.001029,0.000974,-0.001276,0.000591,  13.886
   513.6,0.001031,0.000975,-0.001205,0.000629,  13.885
   513.8,0.001024,0.000967,-0.001134,0.000629,  13.883
   514.0,0.001027,0.000972,-0.001071,0.000591,  13.888
   514.2,0.001019,0.000970,-0.001000,0.000591,  13.887
   514.4,0.001019,0.000964,-0.000947,0.000591,  13.886
   514.6,0.001012,0.000964,-0.000903,0.000554,  13.886
   514.8,0.001012,0.000967,-0.000910,0.000567,  13.887
   515.0,0.001012,0.000961,-0.000947,0.000605,  13.886
   515.2,0.001012,0.000964,-0.001035,0.000567,  13.885
   515.4,0.001012,0.000965,-0.001052,0.000581,  13.887
   515.6,0.001007,0.000965,-0.001062,0.000605,  13.886
   515.8,0.001007,0.000963,-0.001088,0.000567,  13.884
   516.0,0.001007,0.000971,-0.001071,0.000567,  13.886
   516.2,0.001001,0.000967,-0.001044,0.000591,  13.882
   516.4,0.001001,0.000965,-0.001027,0.000591,  13.885
   516.6,0.001004,0.000965,-0.001027,0.000567,  13.883
   516.8,0.001001,0.000965,-0.001044,0.000554,  13.885
   517.0,0.000998,0.000963,-0.001071,0.000591,  13.889
   517.2,0.000998,0.000962,-0.001071,0.000567,  13.884
   517.4,0.000992,0.000959,-0.001054,0.000591,  13.886
   517.6,0.000992,0.000960,-0.001027,0.000578,  13.884
   517.8,0.000992,0.000961,-0.000992,0.000527,  13.883
   518.0,0.000995,0.000961,-0.001002,0.000527,  13.884
   518.2,0.000998,0.000955,-0.001046,0.000578,  13.885
   518.4,0.000998,0.000955,-0.001117,0.000540,  13.883
   518.6,0.000998,0.000957,-0.001082,0.000540,  13.885
   518.8,0.000998,0.000949,-0.001046,0.000578,  13.888
   519.0,0.000995,0.000949,-0.000975,0.000540,  13.880
   519.2,0.000996,0.000951,-0.000956,0.000540,  13.882
   519.4,0.000989,0.000944,-0.000929,0.000578,  13.883
   519.6,0.000983,0.000947,-0.000921,0.000540,  13.882
   519.8,0.000983,0.000949,-0.001142,0.000540,  13.882
   520.0,0.000978,0.000940,-0.001487,0.000578,  13.883
   520.2,0.000975,0.000948,-0.001990,0.000540,  13.883
   520.4,0.000975,0.000948,-0.002139,0.000540,  13.883
   520.6,0.000971,0.000950,-0.002148,0.000578,  13.885
   520.8,0.000971,0.000950,-0.002087,0.000540,  13.882
   521.0,0.000978,0.000953,-0.001946,0.000540,  13.885
   521.2,0.000981,0.000950,-0.001716,0.000578,  13.883
   521.4,0.000981,0.000957,-0.001399,0.000540,  13.883
   521.6,0.000978,0.000956,-0.001381,0.000540,  13.888
   521.8,0.000981,0.000953,-0.001496,0.000578,  13.889
   522.0,0.000981,0.000954,-0.001726,0.000554,  13.888
   522.2,0.000981,0.000949,-0.001682,0.000554,  13.886
   522.4,0.000991,0.000946,-0.001567,0.000591,  13.888
   522.6,0.000993,0.000954,-0.001399,0.000567,  13.886
   522.8,0.001005,0.000962,-0.001318,0.000594,  13.886
   523.0,0.001014,0.000969,-0.001273,0.000632,  13.886
   523.2,0.001019,0.000983,-0.001236,0.000607,  13.889
   523.4,0.001030,0.001001,-0.001192,0.000621,  13.889
   523.6,0.001043,0.001005,-0.001183,0.000658,  13.890
   523.8,0.001048,0.001015,-0.001185,0.000634,  13.887
   524.0,0.001065,0.001016,-0.001221,0.000634,  13.890
   524.2,0.001074,0.001013,-0.001309,0.000672,  13.888
   524.4,0.001084,0.001020,-0.001399,0.000648,  13.888
   524.6,0.001087,0.001024,-0.001355,0.000648,  13.889
   524.8,0.001087,0.001025,-0.001284,0.000685,  13.889
   525.0,0.001090,0.001025,-0.001142,0.000685,  13.893
   525.2,0.001093,0.001033,-0.001125,0.000674,  13.891
   525.4,0.001099,0.001037,-0.001169,0.000661,  13.892
   525.6,0.001102,0.001038,-0.001249,0.000699,  13.893
   525.8,0.001105,0.001040,-0.001241,0.000661,  13.893
   526.0,0.001108,0.001042,-0.001276,0.000699,  13.894
   526.2,0.001112,0.001049,-0.001285,0.000699,  13.892
   526.4,0.001112,0.001052,-0.001259,0.000661,  13.892
   526.6,0.001108,0.001055,-0.001197,0.000661,  13.893
   526.8,0.001108,0.001057,-0.001126,0.000699,  13.891
   527.0,0.001112,0.001062,-0.001021,0.000661,  13.894
   527.2,0.001112,0.001067,-0.000977,0.000661,  13.894
   527.4,0.001115,0.001061,-0.000950,0.000699,  13.893
   527.6,0.001118,0.001064,-0.000923,0.000674,  13.893
   527.8,0.001118,0.001063,-0.000933,0.000674,  13.897
   528.0,0.001121,0.001062,-0.000977,0.000712,  13.896
   528.2,0.001121,0.001065,-0.001065,0.000688,  13.894
   528.4,0.001118,0.001067,-0.001074,0.000688,  13.894
   528.6,0.001121,0.001061,-0.001040,0.000712,  13.901
   528.8,0.001121,0.001067,-0.001030,0.000674,  13.895
   529.0,0.001118,0.001065,-0.001057,0.000674,  13.900
   529.2,0.001121,0.001065,-0.001119,0.000712,  13.898
   529.4,0.001121,0.001065,-0.001199,0.000674,  13.902
   529.6,0.001121,0.001065,-0.001314,0.000674,  13.901
   529.8,0.001124,0.001061,-0.001438,0.000712,  13.900
   530.0,0.001121,0.001061,-0.001581,0.000674,  13.902
   530.2,0.001118,0.001059,-0.001616,0.000674,  13.901
   530.4,0.001121,0.001056,-0.001572,0.000712,  13.896
   530.6,0.001118,0.001061,-0.001482,0.000661,  13.899
   530.8,0.001115,0.001067,-0.001358,0.000661,  13.901
   531.0,0.001115,0.001064,-0.001233,0.000699,  13.901
   531.2,0.001112,0.001061,-0.001082,0.000648,  13.896
   531.4,0.001108,0.001059,-0.001021,0.000648,  13.898
   531.6,0.001105,0.001054,-0.001004,0.000685,  13.900
   531.8,0.001099,0.001054,-0.001048,0.000661,  13.901
   532.0,0.001093,0.001047,-0.001011,0.000648,  13.903
   532.2,0.001087,0.001037,-0.000933,0.000658,  13.901
   532.4,0.001073,0.001038,-0.000844,0.000621,  13.898
   532.6,0.001078,0.001030,-0.000818,0.000621,  13.898
   532.8,0.001068,0.001019,-0.000852,0.000632,  13.898
   533.0,0.001055,0.001021,-0.000888,0.000594,  13.897
   533.2,0.001053,0.001018,-0.000986,0.000594,  13.898
   533.4,0.001043,0.001013,-0.001180,0.000618,  13.900
   533.6,0.001040,0.001005,-0.001410,0.000581,  13.898
   533.8,0.001034,0.001002,-0.001463,0.000581,  13.898
   534.0,0.001031,0.000999,-0.001465,0.000618,  13.901
   534.2,0.001031,0.000994,-0.001413,0.000581,  13.898
   534.4,0.001028,0.000997,-0.001466,0.000581,  13.898
   534.6,0.001022,0.000989,-0.001529,0.000605,  13.899
   534.8,0.001019,0.000983,-0.001629,0.000605,  13.901
   535.0,0.001016,0.000983,-0.001558,0.000581,  13.901
   535.2,0.001009,0.000981,-0.001407,0.000567,  13.902
   535.4,0.001014,0.000975,-0.001185,0.000591,  13.899
   535.6,0.001007,0.000971,-0.001114,0.000567,  13.899
   535.8,0.001004,0.000966,-0.001114,0.000605,  13.902
   536.0,0.001012,0.000968,-0.001123,0.000605,  13.903
   536.2,0.001015,0.000970,-0.001204,0.000567,  13.897
   536.4,0.001007,0.000969,-0.001177,0.000567,  13.901
   536.6,0.001000,0.000966,-0.001160,0.000591,  13.899
   536.8,0.000997,0.000965,-0.001116,0.000554,  13.900
   537.0,0.000991,0.000962,-0.001054,0.000554,  13.901
   537.2,0.000983,0.000963,-0.000993,0.000591,  13.900
   537.4,0.000983,0.000961,-0.000949,0.000554,  13.905
   537.6,0.000991,0.000961,-0.000949,0.000554,  13.902
   537.8,0.000988,0.000959,-0.000993,0.000591,  13.899
   538.0,0.000988,0.000956,-0.001064,0.000540,  13.895
   538.2,0.000985,0.000953,-0.001046,0.000540,  13.897
   538.4,0.000985,0.000945,-0.001037,0.000578,  13.896
   538.6,0.000977,0.000949,-0.000993,0.000527,  13.898
   538.8,0.000980,0.000954,-0.000966,0.000527,  13.900
   539.0,0.000980,0.000949,-0.000974,0.000578,  13.896
   539.2,0.000977,0.000949,-0.000958,0.000540,  13.899
   539.4,0.000981,0.000950,-0.001196,0.000540,  13.895
   539.6,0.000985,0.000942,-0.001566,0.000578,  13.899
   539.8,0.000978,0.000945,-0.002050,0.000540,  13.897
   540.0,0.000975,0.000948,-0.002497,0.000540,  13.901
   540.2,0.000978,0.000943,-0.002962,0.000578,  13.898
   540.4,0.000968,0.000945,-0.003496,0.000540,  13.899
   540.6,0.000968,0.000942,-0.003338,0.000540,  13.899
   540.8,0.000978,0.000941,-0.002873,0.000578,  13.896
   541.0,0.000978,0.000954,-0.002092,0.000540,  13.896
   541.2,0.000986,0.000956,-0.001811,0.000540,  13.894
   541.4,0.000986,0.000953,-0.001610,0.000565,  13.891
   541.6,0.000978,0.000956,-0.001531,0.000540,  13.891
   541.8,0.000978,0.000957,-0.001353,0.000540,  13.897
   542.0,0.000978,0.000952,-0.001125,0.000565,  13.897
   542.2,0.000968,0.000954,-0.000912,0.000540,  13.896
   542.4,0.000972,0.000954,-0.000868,0.000540,  13.895
   542.6,0.000966,0.000954,-0.000887,0.000565,  13.896
   542.8,0.000966,0.000953,-0.000987,0.000540,  13.896
   543.0,0.000969,0.000952,-0.000916,0.000540,  13.898
   543.2,0.000966,0.000952,-0.000793,0.000565,  13.898
   543.4,0.000966,0.000950,-0.000668,0.000565,  13.896
   543.6,0.000969,0.000951,-0.000659,0.000527,  13.896
   543.8,0.000966,0.000953,-0.000687,0.000540,  13.896
   544.0,0.000966,0.000944,-0.000777,0.000578,  13.898
   544.2,0.000969,0.000949,-0.000777,0.000554,  13.898
   544.4,0.000966,0.000948,-0.000716,0.000591,  13.903
   544.6,0.000969,0.000948,-0.000679,0.000578,  13.899
   544.8,0.000972,0.000947,-0.000574,0.000540,  13.900
   545.0,0.000975,0.000944,-0.000583,0.000540,  13.901
   545.2,0.000975,0.000952,-0.000637,0.000578,  13.898
   545.4,0.000975,0.000952,-0.000700,0.000540,  13.898
   545.6,0.000972,0.000952,-0.000646,0.000540,  13.896
   545.8,0.000981,0.000956,-0.000531,0.000578,  13.894
   546.0,0.000991,0.000961,-0.000362,0.000554,  13.897
   546.2,0.001003,0.000966,-0.000370,0.000581,  13.901
   546.4,0.001023,0.000976,-0.000449,0.000632,  13.892
   546.6,0.001032,0.000990,-0.000556,0.000621,  13.897
   546.8,0.001042,0.000997,-0.000529,0.000634,  13.899
   547.0,0.001061,0.000998,-0.000476,0.000658,  13.897
   547.2,0.001071,0.001003,-0.000378,0.000634,  13.892
   547.4,0.001069,0.001007,-0.000405,0.000672,  13.898
   547.6,0.001079,0.001008,-0.000503,0.000696,  13.897
   547.8,0.001088,0.001013,-0.000619,0.000672,  13.899
   548.0,0.001091,0.001023,-0.000612,0.000709,  13.901
   548.2,0.001090,0.001023,-0.000602,0.000709,  13.896
   548.4,0.001089,0.001030,-0.000558,0.000685,  13.895
   548.6,0.001089,0.001035,-0.000487,0.000709,  13.896
   548.8,0.001084,0.001034,-0.000397,0.000709,  13.895
   549.0,0.001077,0.001042,-0.000299,0.000685,  13.897
   549.2,0.001092,0.001042,-0.000299,0.000723,  13.894
   549.4,0.001095,0.001042,-0.000326,0.000736,  13.892
   549.6,0.001087,0.001047,-0.000406,0.000699,  13.893
   549.8,0.001090,0.001053,-0.000362,0.000736,  13.894
   550.0,0.001095,0.001050,-0.000291,0.000736,  13.895
   550.2,0.001090,0.001046,-0.000193,0.000699,  13.895
   550.4,0.001098,0.001041,-0.000201,0.000699,  13.892
   550.6,0.001098,0.001041,-0.000238,0.000699,  13.893
   550.8,0.001098,0.001041,-0.000310,0.000661,  13.891
   551.0,0.001090,0.001041,-0.000364,0.000661,  13.895
   551.2,0.001095,0.001039,-0.000418,0.000699,  13.891
   551.4,0.001092,0.001042,-0.000481,0.000661,  13.892
   551.6,0.001092,0.001045,-0.000613,0.000661,  13.895
   551.8,0.001096,0.001041,-0.000780,0.000699,  13.888
   552.0,0.001096,0.001045,-0.000974,0.000699,  13.891
   552.2,0.001096,0.001048,-0.000938,0.000661,  13.890
   552.4,0.001099,0.001044,-0.000779,0.000661,  13.890
   552.6,0.001099,0.001048,-0.000531,0.000699,  13.891
   552.8,0.001092,0.001044,-0.000433,0.000661,  13.886
   553.0,0.001089,0.001041,-0.000380,0.000699,  13.887
   553.2,0.001092,0.001043,-0.000335,0.000699,  13.886
   553.4,0.001089,0.001049,-0.000328,0.000661,  13.890
   553.6,0.001093,0.001046,-0.000291,0.000661,  13.887
   553.8,0.001096,0.001043,-0.000247,0.000699,  13.887
   554.0,0.001093,0.001043,-0.000211,0.000661,  13.885
   554.2,0.001093,0.001040,-0.000201,0.000661,  13.884
   554.4,0.001093,0.001034,-0.000193,0.000661,  13.882
   554.6,0.001087,0.001034,-0.000220,0.000661,  13.885
   554.8,0.001081,0.001034,-0.000212,0.000661,  13.885
   555.0,0.001078,0.001034,-0.000249,0.000648,  13.879
   555.2,0.001071,0.001032,-0.000295,0.000661,  13.882
   555.4,0.001065,0.001027,-0.000295,0.000648,  13.883
   555.6,0.001062,0.001017,-0.000260,0.000634,  13.880
   555.8,0.001056,0.001018,-0.000243,0.000648,  13.877
   556.0,0.001050,0.001016,-0.000277,0.000621,  13.878
   556.2,0.001043,0.001008,-0.000296,0.000607,  13.876
   556.4,0.001037,0.001003,-0.000359,0.000621,  13.875
   556.6,0.001025,0.000999,-0.000377,0.000607,  13.872
   556.8,0.001022,0.000988,-0.000359,0.000645,  13.873
   557.0,0.001022,0.000986,-0.000352,0.000607,  13.871
   557.2,0.001022,0.000984,-0.000307,0.000594,  13.876
   557.4,0.001019,0.000976,-0.000271,0.000618,  13.869
   557.6,0.001008,0.000974,-0.000209,0.000581,  13.871
   557.8,0.001002,0.000972,-0.000165,0.000581,  13.870
   558.0,0.000999,0.000967,-0.000121,0.000605,  13.867
   558.2,0.000988,0.000968,-0.000086,0.000567,  13.865
   558.4,0.000985,0.000964,-0.000015,0.000567,  13.865
   558.6,0.000989,0.000953,0.000056,0.000591,  13.867
   558.8,0.000979,0.000956,0.000135,0.000554,  13.863
   559.0,0.000983,0.000957,0.000029,0.000554,  13.865
   559.2,0.000980,0.000955,-0.000165,0.000591,  13.865
   559.4,0.000977,0.000958,-0.000449,0.000554,  13.860
   559.6,0.000974,0.000964,-0.000457,0.000554,  13.861
   559.8,0.000978,0.000964,-0.000361,0.000591,  13.860
   560.0,0.000981,0.000961,-0.000184,0.000591,  13.857
   560.2,0.000978,0.000961,-0.000086,0.000567,  13.852
   560.4,0.000975,0.000958,0.000012,0.000554,  13.855
   560.6,0.000978,0.000955,0.000117,0.000591,  13.852
   560.8,0.000975,0.000954,0.000117,0.000567,  13.855
   561.0,0.000975,0.000953,0.000073,0.000591,  13.851
   561.2,0.000975,0.000953,0.000000,0.000578,  13.850
   561.4,0.000975,0.000950,-0.000009,0.000527,  13.849
   561.6,0.000972,0.000953,-0.000017,0.000527,  13.847
   561.8,0.000977,0.000955,0.000008,0.000578,  13.843
   562.0,0.000981,0.000960,0.000018,0.000540,  13.846
   562.2,0.000986,0.000956,0.000035,0.000540,  13.848
   562.4,0.000990,0.000956,0.000035,0.000578,  13.845
   562.6,0.000993,0.000963,0.000018,0.000540,  13.842
   562.8,0.000988,0.000956,-0.000334,0.000540,  13.843
   563.0,0.000984,0.000956,-0.000820,0.000540,  13.838
   563.2,0.000984,0.000956,-0.001456,0.000540,  13.839
   563.4,0.000978,0.000952,-0.001473,0.000540,  13.837
   563.6,0.000963,0.000955,-0.001244,0.000578,  13.834
   563.8,0.000966,0.000957,-0.000760,0.000540,  13.837
   564.0,0.000969,0.000957,-0.000601,0.000540,  13.833
   564.2,0.000962,0.000960,-0.000461,0.000578,  13.831
   564.4,0.000965,0.000960,-0.000407,0.000554,  13.833
   564.6,0.000972,0.000957,-0.000344,0.000554,  13.833
   564.8,0.000972,0.000954,-0.000292,0.000591,  13.830
   565.0,0.000975,0.000954,-0.000257,0.000567,  13.830
   565.2,0.000972,0.000954,-0.000557,0.000567,  13.825
   565.4,0.000975,0.000952,-0.001025,0.000591,  13.827
   565.6,0.000975,0.000953,-0.001685,0.000554,  13.822
   565.8,0.000975,0.000955,-0.001827,0.000554,  13.819
   566.0,0.000986,0.000954,-0.001810,0.000591,  13.821
   566.2,0.000986,0.000951,-0.001678,0.000554,  13.817
   566.4,0.000986,0.000955,-0.001519,0.000554,  13.817
   566.6,0.000990,0.000952,-0.001264,0.000591,  13.819
   566.8,0.000991,0.000955,-0.000930,0.000554,  13.820
   567.0,0.000990,0.000956,-0.000710,0.000554,  13.814
   567.2,0.000985,0.000950,-0.000524,0.000591,  13.813
   567.4,0.000988,0.000952,-0.000347,0.000554,  13.810
