Run Name,Run 1
Run Date,02:30:37 PM   01-28-14
Method Name,50%B-Isocratic.1
Export Format Version, 1.00
Method ID, 1706
Points/Second, 5.00
Number of Records,   3617
Offset from Run Start Time,00:00:00
Run End Time,00:12:06
Time,Second
QuadTec 1, (280.0 nm), AU
QuadTec 2, (260.0 nm), AU
Gradient Pump,<Not Selected>
QuadTec 3, (214.0 nm), AU
QuadTec 4, (405.0 nm), AU
Conductivity,mS/cm
Trace 6,<Not Available>
GP Pressure,<Not Selected>
Volume,<Not Selected>
Fraction,<Not Available>
Time,QuadTec 1,QuadTec 2,QuadTec 3,QuadTec 4,Conductivity
     0.0,-0.005258,-0.004621,0.000000,0.000000,  46.801
     0.2,-0.005262,-0.004621,0.000000,0.000000,  46.793
     0.4,-0.005260,-0.004621,0.000000,0.000000,  46.788
     0.6,-0.005244,-0.004529,0.000000,0.000000,  46.796
     0.8,-0.005244,0.000000,0.000000,0.000000,  46.788
     1.0,0.000000,0.000000,0.000000,0.000000,  46.793
     1.2,0.000000,0.000000,0.000000,0.000000,  46.794
     1.4,0.000000,0.000000,0.000000,0.000000,  46.790
     1.6,0.000000,0.000000,0.000000,0.000000,  46.794
     1.8,0.000000,0.000000,0.000000,0.000000,  46.789
     2.0,0.000000,0.000000,0.000000,0.000000,  46.792
     2.2,0.000000,0.000000,0.000000,0.000000,  46.792
     2.4,0.000000,0.000000,0.000000,0.000000,  46.785
     2.6,0.000000,0.000000,0.000000,0.000000,  46.787
     2.8,0.000000,0.000000,0.000000,0.000000,  46.791
     3.0,0.000000,0.000000,0.000000,0.000000,  46.791
     3.2,0.000000,0.000000,0.000000,0.000000,  46.789
     3.4,0.000000,0.000000,0.000000,0.000000,  46.788
     3.6,0.000000,0.000000,0.000000,0.000000,  46.784
     3.8,0.000000,0.000000,0.000000,0.000000,  46.791
     4.0,0.000000,0.000000,0.000000,0.000000,  46.785
     4.2,0.000000,0.000000,0.000000,0.000000,  46.792
     4.4,0.000000,0.000000,0.000000,0.000000,  46.794
     4.6,0.000026,-0.000003,0.000249,0.000000,  46.791
     4.8,0.000029,-0.000004,0.000274,-0.000036,  46.796
     5.0,0.000020,-0.000002,0.000063,-0.000071,  46.787
     5.2,0.000024,-0.000002,-0.000352,-0.000058,  46.790
     5.4,0.000021,-0.000000,-0.000997,-0.000071,  46.795
     5.6,0.000015,-0.000007,-0.001852,-0.000094,  46.791
     5.8,0.000016,-0.000005,-0.001900,-0.000071,  46.796
     6.0,0.000013,-0.000010,-0.001673,-0.000071,  46.791
     6.2,0.000016,-0.000010,-0.001156,-0.000094,  46.795
     6.4,0.000007,-0.000010,-0.000967,-0.000058,  46.796
     6.6,0.000013,-0.000013,-0.000797,-0.000058,  46.798
     6.8,0.000013,-0.000011,-0.000660,-0.000045,  46.789
     7.0,0.000007,-0.000011,-0.000591,-0.000045,  46.789
     7.2,0.000010,-0.000011,-0.000577,-0.000045,  46.793
     7.4,0.000013,-0.000008,-0.000609,-0.000058,  46.794
     7.6,0.000007,-0.000005,-0.000604,-0.000058,  46.793
     7.8,0.000013,-0.000005,-0.000604,-0.000058,  46.792
     8.0,0.000009,-0.000009,-0.000602,-0.000058,  46.791
     8.2,0.000007,-0.000007,-0.000626,-0.000081,  46.795
     8.4,0.000007,-0.000005,-0.000612,-0.000045,  46.804
     8.6,0.000000,-0.000010,-0.000592,-0.000058,  46.796
     8.8,0.000007,-0.000005,-0.000558,-0.000081,  46.789
     9.0,0.000004,-0.000007,-0.000538,-0.000045,  46.791
     9.2,-0.000002,-0.000011,-0.000538,-0.000058,  46.790
     9.4,0.000007,-0.000006,-0.000552,-0.000081,  46.791
     9.6,0.000004,-0.000007,-0.000543,-0.000058,  46.790
     9.8,-0.000005,-0.000009,-0.000533,-0.000071,  46.788
    10.0,-0.000004,-0.000015,-0.000523,-0.000094,  46.790
    10.2,-0.000014,-0.000019,-0.000461,-0.000107,  46.790
    10.4,-0.000021,-0.000019,-0.000379,-0.000107,  46.790
    10.6,-0.000012,-0.000024,-0.000262,-0.000129,  46.788
    10.8,-0.000009,-0.000023,-0.000209,-0.000143,  46.786
    11.0,-0.000013,-0.000022,-0.000166,-0.000107,  46.785
    11.2,-0.000006,-0.000021,-0.000132,-0.000129,  46.784
    11.4,-0.000006,-0.000016,-0.000156,-0.000143,  46.766
    11.6,-0.000008,-0.000017,-0.000239,-0.000107,  46.768
    11.8,-0.000005,-0.000012,-0.000355,-0.000129,  46.767
    12.0,0.000000,-0.000011,-0.000320,-0.000143,  46.765
    12.2,0.000000,-0.000018,-0.000263,-0.000107,  46.765
    12.4,0.000003,-0.000017,-0.000152,-0.000129,  46.763
    12.6,0.000000,-0.000017,-0.000308,-0.000107,  46.765
    12.8,0.000000,-0.000013,-0.000587,-0.000071,  46.763
    13.0,0.000006,-0.000014,-0.000991,-0.000094,  46.763
    13.2,0.000008,-0.000003,-0.001156,-0.000071,  46.767
    13.4,0.000011,0.000001,-0.001263,-0.000071,  46.762
    13.6,0.000004,-0.000002,-0.001326,-0.000094,  46.762
    13.8,0.000004,-0.000002,-0.001215,-0.000058,  46.757
    14.0,0.000011,-0.000004,-0.001017,-0.000058,  46.755
    14.2,0.000004,-0.000005,-0.000695,-0.000045,  46.765
    14.4,0.000002,-0.000007,-0.000584,-0.000045,  46.760
    14.6,0.000006,-0.000009,-0.000491,-0.000045,  46.752
    14.8,0.000002,-0.000006,-0.000467,-0.000058,  46.760
    15.0,-0.000001,-0.000002,-0.000475,-0.000058,  46.758
    15.2,0.000003,-0.000002,-0.000437,-0.000071,  46.758
    15.4,-0.000001,-0.000007,-0.000407,-0.000071,  46.756
    15.6,-0.000001,-0.000002,-0.000392,-0.000094,  46.757
    15.8,0.000003,-0.000002,-0.000344,-0.000071,  46.756
    16.0,-0.000003,-0.000009,-0.000291,-0.000071,  46.755
    16.2,-0.000006,-0.000008,-0.000212,-0.000094,  46.756
    16.4,-0.000008,-0.000012,-0.000212,-0.000107,  46.756
    16.6,-0.000017,-0.000014,-0.000236,-0.000107,  46.758
    16.8,-0.000017,-0.000013,-0.000289,-0.000129,  46.769
    17.0,-0.000013,-0.000017,-0.000304,-0.000143,  46.760
    17.2,-0.000022,-0.000015,-0.000338,-0.000107,  46.755
    17.4,-0.000022,-0.000020,-0.000372,-0.000129,  46.759
    17.6,-0.000013,-0.000022,-0.000354,-0.000120,  46.757
    17.8,-0.000019,-0.000022,-0.000321,-0.000097,  46.753
    18.0,-0.000015,-0.000024,-0.000268,-0.000133,  46.755
    18.2,-0.000012,-0.000028,-0.000292,-0.000097,  46.757
    18.4,-0.000018,-0.000030,-0.000345,-0.000110,  46.759
    18.6,-0.000017,-0.000034,-0.000437,-0.000146,  46.755
    18.8,-0.000022,-0.000035,-0.000447,-0.000097,  46.760
    19.0,-0.000018,-0.000035,-0.000438,-0.000110,  46.752
    19.2,-0.000026,-0.000045,-0.000395,-0.000146,  46.762
    19.4,-0.000022,-0.000041,-0.000387,-0.000097,  46.760
    19.6,-0.000020,-0.000043,-0.000387,-0.000110,  46.756
    19.8,-0.000026,-0.000045,-0.000397,-0.000146,  46.755
    20.0,-0.000030,-0.000046,-0.000403,-0.000097,  46.755
    20.2,-0.000031,-0.000048,-0.000413,-0.000110,  46.761
    20.4,-0.000029,-0.000047,-0.000437,-0.000133,  46.755
    20.6,-0.000035,-0.000050,-0.000437,-0.000097,  46.761
    20.8,-0.000031,-0.000048,-0.000433,-0.000097,  46.756
    21.0,-0.000026,-0.000049,-0.000443,-0.000097,  46.758
    21.2,-0.000030,-0.000050,-0.000443,-0.000084,  46.757
    21.4,-0.000021,-0.000050,-0.000449,-0.000097,  46.763
    21.6,-0.000018,-0.000045,-0.000463,-0.000097,  46.757
    21.8,-0.000022,-0.000044,-0.000483,-0.000084,  46.762
    22.0,-0.000016,-0.000044,-0.000493,-0.000097,  46.760
    22.2,-0.000016,-0.000044,-0.000523,-0.000097,  46.763
    22.4,-0.000016,-0.000043,-0.000537,-0.000120,  46.759
    22.6,-0.000009,-0.000039,-0.000533,-0.000084,  46.764
    22.8,-0.000009,-0.000039,-0.000523,-0.000084,  46.769
    23.0,-0.000009,-0.000040,-0.000513,-0.000107,  46.766
    23.2,-0.000009,-0.000036,-0.000499,-0.000084,  46.767
    23.4,-0.000009,-0.000043,-0.000480,-0.000097,  46.763
    23.6,-0.000018,-0.000043,-0.000466,-0.000120,  46.764
    23.8,-0.000021,-0.000043,-0.000437,-0.000097,  46.763
    24.0,-0.000021,-0.000050,-0.000409,-0.000097,  46.760
    24.2,-0.000027,-0.000047,-0.000375,-0.000120,  46.760
    24.4,-0.000021,-0.000051,-0.000370,-0.000097,  46.763
    24.6,-0.000021,-0.000053,-0.000396,-0.000097,  46.764
    24.8,-0.000027,-0.000055,-0.000415,-0.000120,  46.763
    25.0,-0.000021,-0.000054,-0.000443,-0.000097,  46.764
    25.2,-0.000027,-0.000052,-0.000498,-0.000097,  46.774
    25.4,-0.000025,-0.000055,-0.000555,-0.000097,  46.768
    25.6,-0.000022,-0.000048,-0.000565,-0.000097,  46.765
    25.8,-0.000018,-0.000049,-0.000561,-0.000075,  46.772
    26.0,-0.000030,-0.000050,-0.000536,-0.000075,  46.774
    26.2,-0.000016,-0.000050,-0.000522,-0.000097,  46.772
    26.4,-0.000014,-0.000055,-0.000508,-0.000075,  46.776
    26.6,-0.000019,-0.000048,-0.000498,-0.000075,  46.776
    26.8,-0.000028,-0.000051,-0.000465,-0.000110,  46.773
    27.0,-0.000034,-0.000056,-0.000410,-0.000088,  46.773
    27.2,-0.000041,-0.000056,-0.000362,-0.000123,  46.776
    27.4,-0.000044,-0.000054,-0.000358,-0.000110,  46.781
    27.6,-0.000033,-0.000056,-0.000358,-0.000110,  46.780
    27.8,-0.000028,-0.000054,-0.000376,-0.000110,  46.778
    28.0,-0.000031,-0.000051,-0.000396,-0.000146,  46.774
    28.2,-0.000031,-0.000051,-0.000431,-0.000097,  46.777
    28.4,-0.000029,-0.000048,-0.000469,-0.000110,  46.781
    28.6,-0.000035,-0.000050,-0.000469,-0.000110,  46.781
    28.8,-0.000029,-0.000050,-0.000455,-0.000097,  46.784
    29.0,-0.000026,-0.000048,-0.000426,-0.000110,  46.782
    29.2,-0.000033,-0.000043,-0.000378,-0.000146,  46.782
    29.4,-0.000024,-0.000043,-0.000388,-0.000133,  46.777
    29.6,-0.000024,-0.000046,-0.000412,-0.000146,  46.782
    29.8,-0.000024,-0.000041,-0.000441,-0.000182,  46.787
    30.0,-0.000017,-0.000039,-0.000489,-0.000133,  46.779
    30.2,-0.000015,-0.000040,-0.000556,-0.000110,  46.785
    30.4,-0.000018,-0.000031,-0.000648,-0.000146,  46.785
    30.6,-0.000018,-0.000031,-0.000711,-0.000097,  46.786
    30.8,-0.000016,-0.000025,-0.000765,-0.000110,  46.783
    31.0,-0.000017,-0.000029,-0.000803,-0.000146,  46.784
    31.2,-0.000013,-0.000026,-0.000765,-0.000097,  46.787
    31.4,-0.000010,-0.000022,-0.000668,-0.000110,  46.788
    31.6,-0.000017,-0.000022,-0.000516,-0.000146,  46.791
    31.8,-0.000010,-0.000023,-0.000360,-0.000097,  46.784
    32.0,-0.000014,-0.000024,-0.000200,-0.000110,  46.785
    32.2,-0.000014,-0.000027,-0.000015,-0.000110,  46.789
    32.4,-0.000014,-0.000025,0.000009,-0.000110,  46.785
    32.6,-0.000018,-0.000021,-0.000050,-0.000088,  46.784
    32.8,-0.000009,-0.000021,-0.000192,-0.000088,  46.789
    33.0,-0.000006,-0.000016,-0.000240,-0.000110,  46.788
    33.2,-0.000006,-0.000016,-0.000289,-0.000075,  46.787
    33.4,-0.000006,-0.000019,-0.000336,-0.000062,  46.785
    33.6,-0.000013,-0.000022,-0.000360,-0.000097,  46.797
    33.8,-0.000012,-0.000024,-0.000380,-0.000062,  46.796
    34.0,-0.000018,-0.000018,-0.000375,-0.000084,  46.789
    34.2,-0.000009,-0.000012,-0.000399,-0.000097,  46.799
    34.4,-0.000003,-0.000012,-0.000437,-0.000097,  46.795
    34.6,0.000000,-0.000015,-0.000480,-0.000120,  46.795
    34.8,-0.000006,-0.000016,-0.000490,-0.000084,  46.796
    35.0,-0.000003,-0.000025,-0.000480,-0.000084,  46.797
    35.2,0.000000,-0.000027,-0.000486,-0.000084,  46.790
    35.4,-0.000009,-0.000033,-0.000476,-0.000071,  46.793
    35.6,-0.000005,-0.000037,-0.000462,-0.000071,  46.794
    35.8,-0.000003,-0.000036,-0.000448,-0.000084,  46.790
    36.0,-0.000014,-0.000031,-0.000433,-0.000071,  46.794
    36.2,-0.000010,-0.000033,-0.000433,-0.000084,  46.795
    36.4,-0.000014,-0.000034,-0.000458,-0.000097,  46.792
    36.6,-0.000014,-0.000035,-0.000502,-0.000120,  46.798
    36.8,-0.000014,-0.000036,-0.000483,-0.000097,  46.790
    37.0,-0.000021,-0.000045,-0.000449,-0.000097,  46.789
    37.2,-0.000017,-0.000043,-0.000400,-0.000120,  46.791
    37.4,-0.000025,-0.000043,-0.000425,-0.000097,  46.790
    37.6,-0.000031,-0.000043,-0.000473,-0.000097,  46.789
    37.8,-0.000022,-0.000043,-0.000545,-0.000120,  46.787
    38.0,-0.000022,-0.000042,-0.000583,-0.000084,  46.791
    38.2,-0.000022,-0.000040,-0.000622,-0.000084,  46.788
    38.4,-0.000022,-0.000038,-0.000670,-0.000107,  46.791
    38.6,-0.000016,-0.000036,-0.000818,-0.000084,  46.792
    38.8,-0.000016,-0.000034,-0.001018,-0.000097,  46.788
    39.0,-0.000019,-0.000032,-0.001278,-0.000120,  46.791
    39.2,-0.000013,-0.000030,-0.001298,-0.000084,  46.784
    39.4,-0.000010,-0.000026,-0.001243,-0.000084,  46.779
    39.6,-0.000014,-0.000029,-0.001096,-0.000107,  46.785
    39.8,-0.000008,-0.000029,-0.001076,-0.000071,  46.785
    40.0,-0.000008,-0.000028,-0.001080,-0.000084,  46.789
    40.2,-0.000014,-0.000030,-0.001103,-0.000107,  46.786
    40.4,-0.000008,-0.000032,-0.001060,-0.000071,  46.783
    40.6,-0.000010,-0.000031,-0.000988,-0.000084,  46.782
    40.8,-0.000012,-0.000031,-0.000886,-0.000107,  46.784
    41.0,-0.000003,-0.000038,-0.000809,-0.000071,  46.782
    41.2,0.000000,-0.000043,-0.000742,-0.000084,  46.780
    41.4,0.000000,-0.000037,-0.000664,-0.000107,  46.783
    41.6,0.000000,-0.000037,-0.000668,-0.000084,  46.779
    41.8,0.000006,-0.000041,-0.000726,-0.000097,  46.784
    42.0,0.000009,-0.000039,-0.000812,-0.000097,  46.792
    42.2,0.000009,-0.000031,-0.000806,-0.000097,  46.791
    42.4,0.000009,-0.000031,-0.000798,-0.000097,  46.781
    42.6,0.000009,-0.000034,-0.000763,-0.000097,  46.785
    42.8,0.000009,-0.000026,-0.000729,-0.000084,  46.782
    43.0,0.000006,-0.000020,-0.000691,-0.000084,  46.783
    43.2,0.000004,-0.000025,-0.000658,-0.000084,  46.789
    43.4,0.000004,-0.000021,-0.000599,-0.000120,  46.785
    43.6,0.000006,-0.000021,-0.000575,-0.000084,  46.781
    43.8,0.000006,-0.000023,-0.000559,-0.000110,  46.776
    44.0,0.000004,-0.000024,-0.000553,-0.000146,  46.780
    44.2,-0.000001,-0.000026,-0.000592,-0.000097,  46.781
    44.4,0.000001,-0.000026,-0.000655,-0.000110,  46.776
    44.6,-0.000005,-0.000028,-0.000766,-0.000146,  46.777
    44.8,-0.000005,-0.000022,-0.000790,-0.000097,  46.773
    45.0,-0.000003,-0.000022,-0.000786,-0.000110,  46.775
    45.2,-0.000012,-0.000020,-0.000762,-0.000133,  46.765
    45.4,-0.000005,-0.000020,-0.000782,-0.000097,  46.768
    45.6,0.000000,-0.000021,-0.000808,-0.000097,  46.769
    45.8,-0.000006,-0.000017,-0.000842,-0.000120,  46.767
    46.0,0.000003,-0.000013,-0.000885,-0.000097,  46.763
    46.2,0.000003,-0.000014,-0.000938,-0.000097,  46.762
    46.4,-0.000004,-0.000018,-0.001003,-0.000120,  46.764
    46.6,-0.000003,-0.000016,-0.000979,-0.000097,  46.766
    46.8,-0.000006,-0.000016,-0.000926,-0.000097,  46.763
    47.0,-0.000004,-0.000016,-0.000845,-0.000120,  46.759
    47.2,-0.000001,-0.000016,-0.000812,-0.000084,  46.758
    47.4,-0.000001,-0.000011,-0.000782,-0.000084,  46.757
    47.6,-0.000002,-0.000011,-0.000776,-0.000107,  46.756
    47.8,-0.000002,-0.000005,-0.000748,-0.000071,  46.750
    48.0,0.000004,-0.000002,-0.000699,-0.000071,  46.750
    48.2,0.000000,0.000003,-0.000645,-0.000094,  46.750
    48.4,0.000000,0.000002,-0.000610,-0.000071,  46.747
    48.6,0.000007,0.000001,-0.000596,-0.000071,  46.746
    48.8,0.000007,0.000003,-0.000582,-0.000094,  46.743
    49.0,0.000007,0.000001,-0.000590,-0.000071,  46.743
    49.2,0.000010,0.000003,-0.000643,-0.000071,  46.745
    49.4,0.000013,0.000003,-0.000710,-0.000071,  46.743
    49.6,0.000009,0.000001,-0.000734,-0.000071,  46.737
    49.8,0.000016,0.000001,-0.000753,-0.000071,  46.733
    50.0,0.000018,0.000001,-0.000767,-0.000071,  46.738
    50.2,0.000012,0.000001,-0.000737,-0.000058,  46.735
    50.4,0.000016,0.000001,-0.000700,-0.000071,  46.741
    50.6,0.000018,0.000001,-0.000641,-0.000071,  46.743
    50.8,0.000016,0.000001,-0.000564,-0.000094,  46.735
    51.0,0.000019,0.000001,-0.000560,-0.000071,  46.726
    51.2,0.000022,0.000002,-0.000564,-0.000071,  46.729
    51.4,0.000018,0.000003,-0.000593,-0.000094,  46.719
    51.6,0.000021,0.000005,-0.000583,-0.000071,  46.721
    51.8,0.000021,-0.000002,-0.000569,-0.000071,  46.732
    52.0,0.000016,-0.000001,-0.000543,-0.000094,  46.717
    52.2,0.000012,-0.000002,-0.000601,-0.000071,  46.718
    52.4,0.000012,-0.000004,-0.000704,-0.000071,  46.720
    52.6,0.000008,-0.000006,-0.000836,-0.000094,  46.719
    52.8,0.000008,-0.000012,-0.000710,-0.000071,  46.714
    53.0,0.000003,-0.000012,-0.000481,-0.000071,  46.714
    53.2,-0.000009,-0.000013,-0.000141,-0.000094,  46.714
    53.4,-0.000013,-0.000011,-0.000072,-0.000071,  46.699
    53.6,-0.000013,-0.000013,-0.000111,-0.000084,  46.697
    53.8,-0.000017,-0.000010,-0.000243,-0.000107,  46.691
    54.0,-0.000008,-0.000011,-0.000320,-0.000071,  46.695
    54.2,-0.000008,-0.000009,-0.000431,-0.000084,  46.698
    54.4,-0.000008,-0.000010,-0.000567,-0.000107,  46.698
    54.6,-0.000007,-0.000011,-0.000563,-0.000071,  46.688
    54.8,-0.000003,-0.000009,-0.000506,-0.000084,  46.687
    55.0,-0.000007,-0.000008,-0.000384,-0.000107,  46.693
    55.2,-0.000004,-0.000009,-0.000366,-0.000071,  46.691
    55.4,-0.000001,-0.000008,-0.000346,-0.000084,  46.690
    55.6,0.000004,-0.000007,-0.000370,-0.000107,  46.688
    55.8,0.000006,-0.000007,-0.000404,-0.000071,  46.692
    56.0,0.000009,-0.000007,-0.000443,-0.000084,  46.692
    56.2,0.000014,-0.000003,-0.000516,-0.000084,  46.692
    56.4,0.000017,-0.000001,-0.000512,-0.000084,  46.691
    56.6,0.000019,-0.000002,-0.000487,-0.000107,  46.695
    56.8,0.000019,-0.000005,-0.000433,-0.000120,  46.698
    57.0,0.000019,-0.000005,-0.000403,-0.000107,  46.696
    57.2,0.000017,-0.000001,-0.000398,-0.000107,  46.698
    57.4,0.000019,-0.000005,-0.000378,-0.000120,  46.695
    57.6,0.000019,-0.000003,-0.000394,-0.000143,  46.696
    57.8,0.000019,0.000000,-0.000361,-0.000143,  46.697
    58.0,0.000025,-0.000000,-0.000317,-0.000107,  46.698
    58.2,0.000027,0.000006,-0.000258,-0.000129,  46.697
    58.4,0.000033,0.000008,-0.000297,-0.000143,  46.701
    58.6,0.000035,0.000006,-0.000384,-0.000107,  46.698
    58.8,0.000031,0.000012,-0.000494,-0.000129,  46.705
    59.0,0.000031,0.000012,-0.000494,-0.000143,  46.718
    59.2,0.000031,0.000010,-0.000470,-0.000107,  46.710
    59.4,0.000025,0.000011,-0.000407,-0.000129,  46.710
    59.6,0.000031,0.000010,-0.000456,-0.000143,  46.707
    59.8,0.000034,0.000012,-0.000567,-0.000107,  46.713
    60.0,0.000030,0.000012,-0.000707,-0.000129,  46.712
    60.2,0.000039,0.000014,-0.000590,-0.000107,  46.718
    60.4,0.000039,0.000013,-0.000381,-0.000071,  46.716
    60.6,0.000033,0.000006,-0.000075,-0.000094,  46.720
    60.8,0.000034,0.000005,-0.000026,-0.000071,  46.721
    61.0,0.000034,0.000002,-0.000061,-0.000071,  46.726
    61.2,0.000030,0.000004,-0.000187,-0.000094,  46.740
    61.4,0.000034,0.000002,-0.000245,-0.000071,  46.746
    61.6,0.000031,0.000000,-0.000318,-0.000071,  46.751
    61.8,0.000028,0.000008,-0.000395,-0.000094,  46.749
    62.0,0.000029,0.000013,-0.000415,-0.000071,  46.750
    62.2,0.000029,0.000011,-0.000425,-0.000071,  46.756
    62.4,0.000022,0.000009,-0.000405,-0.000094,  46.754
    62.6,0.000029,0.000012,-0.000407,-0.000071,  46.758
    62.8,0.000029,0.000009,-0.000403,-0.000071,  46.766
    63.0,0.000029,0.000006,-0.000403,-0.000094,  46.763
    63.2,0.000025,0.000004,-0.000637,-0.000071,  46.763
    63.4,0.000029,0.000006,-0.001013,-0.000071,  46.765
    63.6,0.000029,0.000008,-0.001498,-0.000058,  46.773
    63.8,0.000025,0.000011,-0.001516,-0.000058,  46.770
    64.0,0.000031,0.000015,-0.001379,-0.000058,  46.776
    64.2,0.000034,0.000020,-0.001077,-0.000058,  46.776
    64.4,0.000033,0.000025,-0.000998,-0.000032,  46.775
    64.6,0.000044,0.000025,-0.000938,-0.000032,  46.776
    64.8,0.000043,0.000031,-0.000934,-0.000045,  46.778
    65.0,0.000046,0.000032,-0.000937,-0.000081,  46.774
    65.2,0.000049,0.000029,-0.000922,-0.000045,  46.779
    65.4,0.000045,0.000029,-0.000907,-0.000058,  46.781
    65.6,0.000051,0.000032,-0.000901,-0.000081,  46.781
    65.8,0.000049,0.000034,-0.000844,-0.000045,  46.783
    66.0,0.000049,0.000031,-0.000742,-0.000058,  46.784
    66.2,0.000049,0.000028,-0.000621,-0.000081,  46.786
    66.4,0.000055,0.000032,-0.000530,-0.000045,  46.782
    66.6,0.000055,0.000036,-0.000438,-0.000058,  46.785
    66.8,0.000055,0.000036,-0.000345,-0.000081,  46.776
    67.0,0.000059,0.000036,-0.000195,-0.000045,  46.779
    67.2,0.000052,0.000036,-0.000005,-0.000058,  46.783
    67.4,0.000055,0.000040,0.000216,-0.000081,  46.788
    67.6,0.000049,0.000037,0.000226,-0.000045,  46.787
    67.8,0.000042,0.000037,0.000143,-0.000045,  46.784
    68.0,0.000051,0.000040,-0.000026,-0.000068,  46.784
    68.2,0.000051,0.000038,-0.000075,-0.000032,  46.784
    68.4,0.000055,0.000038,-0.000109,-0.000032,  46.782
    68.6,0.000056,0.000045,-0.000143,-0.000055,  46.785
    68.8,0.000057,0.000049,-0.000182,-0.000019,  46.788
    69.0,0.000066,0.000047,-0.000229,-0.000032,  46.788
    69.2,0.000060,0.000045,-0.000265,-0.000068,  46.790
    69.4,0.000060,0.000040,-0.000244,-0.000032,  46.791
    69.6,0.000058,0.000036,-0.000216,-0.000032,  46.788
    69.8,0.000055,0.000035,-0.000169,-0.000081,  46.789
    70.0,0.000051,0.000036,-0.000130,-0.000045,  46.792
    70.2,0.000057,0.000038,-0.000086,-0.000045,  46.794
    70.4,0.000063,0.000035,-0.000067,-0.000045,  46.799
    70.6,0.000061,0.000041,-0.000049,-0.000045,  46.796
    70.8,0.000064,0.000041,-0.000029,-0.000045,  46.799
    71.0,0.000069,0.000036,-0.000019,-0.000045,  46.797
    71.2,0.000065,0.000037,-0.000043,-0.000045,  46.800
    71.4,0.000063,0.000037,-0.000092,-0.000045,  46.797
    71.6,0.000059,0.000037,-0.000150,-0.000045,  46.796
    71.8,0.000062,0.000042,-0.000232,-0.000081,  46.804
    72.0,0.000062,0.000045,-0.000250,-0.000045,  46.799
    72.2,0.000058,0.000041,-0.000269,-0.000045,  46.802
    72.4,0.000064,0.000041,-0.000273,-0.000081,  46.801
    72.6,0.000064,0.000041,-0.000269,-0.000045,  46.799
    72.8,0.000060,0.000041,-0.000259,-0.000045,  46.800
    73.0,0.000067,0.000044,-0.000234,-0.000081,  46.795
    73.2,0.000067,0.000044,-0.000234,-0.000045,  46.794
    73.4,0.000063,0.000045,-0.000234,-0.000045,  46.789
    73.6,0.000072,0.000044,-0.000249,-0.000081,  46.792
    73.8,0.000072,0.000045,-0.000190,-0.000045,  46.796
    74.0,0.000066,0.000044,-0.000107,-0.000058,  46.797
    74.2,0.000069,0.000042,-0.000005,-0.000081,  46.796
    74.4,0.000067,0.000038,0.000033,-0.000045,  46.799
    74.6,0.000060,0.000037,0.000048,-0.000058,  46.793
    74.8,0.000060,0.000040,0.000033,-0.000081,  46.796
    75.0,0.000060,0.000041,0.000058,-0.000045,  46.792
    75.2,0.000051,0.000042,0.000062,-0.000058,  46.791
    75.4,0.000049,0.000046,0.000080,-0.000081,  46.790
    75.6,0.000050,0.000041,0.000085,-0.000045,  46.792
    75.8,0.000047,0.000037,0.000090,-0.000058,  46.802
    76.0,0.000045,0.000040,0.000070,-0.000081,  46.798
    76.2,0.000042,0.000034,0.000089,-0.000045,  46.796
    76.4,0.000040,0.000028,0.000113,-0.000058,  46.793
    76.6,0.000040,0.000031,0.000148,-0.000081,  46.790
    76.8,0.000040,0.000037,0.000113,-0.000045,  46.786
    77.0,0.000040,0.000034,0.000024,-0.000058,  46.791
    77.2,0.000031,0.000027,-0.000071,-0.000058,  46.789
    77.4,0.000032,0.000026,-0.000061,-0.000045,  46.795
    77.6,0.000030,0.000024,-0.000023,-0.000058,  46.789
    77.8,0.000021,0.000022,0.000050,-0.000058,  46.791
    78.0,0.000028,0.000023,-0.000067,-0.000058,  46.792
    78.2,0.000028,0.000019,-0.000263,-0.000058,  46.790
    78.4,0.000024,0.000015,-0.000527,-0.000058,  46.785
    78.6,0.000030,0.000016,-0.000862,-0.000081,  46.790
    78.8,0.000030,0.000013,-0.000848,-0.000045,  46.785
    79.0,0.000026,0.000017,-0.000731,-0.000058,  46.788
    79.2,0.000030,0.000025,-0.000527,-0.000081,  46.787
    79.4,0.000030,0.000023,-0.000434,-0.000045,  46.782
    79.6,0.000026,0.000021,-0.000375,-0.000058,  46.780
    79.8,0.000033,0.000020,-0.000331,-0.000081,  46.779
    80.0,0.000035,0.000020,-0.000243,-0.000045,  46.781
    80.2,0.000032,0.000011,-0.000132,-0.000058,  46.780
    80.4,0.000035,0.000017,-0.000020,-0.000081,  46.783
    80.6,0.000035,0.000011,-0.000235,-0.000081,  46.782
    80.8,0.000032,0.000009,-0.000589,-0.000094,  46.781
    81.0,0.000035,0.000011,-0.001119,-0.000116,  46.783
    81.2,0.000035,0.000011,-0.001115,-0.000129,  46.783
    81.4,0.000032,0.000011,-0.000915,-0.000107,  46.781
    81.6,0.000035,0.000015,-0.000539,-0.000129,  46.786
    81.8,0.000035,0.000017,-0.000472,-0.000143,  46.784
    82.0,0.000029,0.000012,-0.000448,-0.000107,  46.784
    82.2,0.000033,0.000012,-0.000496,-0.000129,  46.783
    82.4,0.000028,0.000012,-0.000462,-0.000129,  46.788
    82.6,0.000028,0.000011,-0.000428,-0.000094,  46.787
    82.8,0.000028,0.000011,-0.000393,-0.000116,  46.796
    83.0,0.000021,0.000010,-0.000336,-0.000116,  46.793
    83.2,0.000028,0.000006,-0.000259,-0.000094,  46.800
    83.4,0.000024,0.000009,-0.000182,-0.000116,  46.801
    83.6,0.000026,0.000011,-0.000163,-0.000116,  46.801
    83.8,0.000035,0.000013,-0.000163,-0.000094,  46.805
    84.0,0.000034,0.000019,-0.000176,-0.000116,  46.804
    84.2,0.000037,0.000024,-0.000083,-0.000116,  46.818
    84.4,0.000040,0.000027,0.000053,-0.000094,  46.811
    84.6,0.000036,0.000025,0.000243,-0.000094,  46.812
    84.8,0.000042,0.000025,-0.000030,-0.000081,  46.813
    85.0,0.000043,0.000023,-0.000510,-0.000129,  46.809
    85.2,0.000037,0.000021,-0.001201,-0.000094,  46.816
    85.4,0.000046,0.000021,-0.002100,-0.000094,  46.818
    85.6,0.000046,0.000024,-0.002051,-0.000094,  46.815
    85.8,0.000037,0.000026,-0.001759,-0.000094,  46.821
    86.0,0.000041,0.000031,-0.001209,-0.000116,  46.822
    86.2,0.000035,0.000029,-0.001019,-0.000116,  46.823
    86.4,0.000029,0.000028,-0.000872,-0.000094,  46.818
    86.6,0.000030,0.000025,-0.000784,-0.000116,  46.825
    86.8,0.000030,0.000027,-0.000662,-0.000116,  46.822
    87.0,0.000024,0.000019,-0.000541,-0.000094,  46.823
    87.2,0.000030,0.000026,-0.000413,-0.000116,  46.822
    87.4,0.000028,0.000026,-0.000273,-0.000116,  46.821
    87.6,0.000021,0.000023,-0.000117,-0.000094,  46.825
    87.8,0.000030,0.000026,0.000043,-0.000116,  46.824
    88.0,0.000028,0.000026,0.000102,-0.000094,  46.825
    88.2,0.000021,0.000023,0.000112,-0.000071,  46.824
    88.4,0.000028,0.000015,0.000065,-0.000094,  46.829
    88.6,0.000022,0.000008,0.000069,-0.000071,  46.829
    88.8,0.000016,0.000004,0.000083,-0.000071,  46.831
    89.0,0.000022,0.000006,0.000087,-0.000094,  46.839
    89.2,0.000020,0.000004,0.000067,-0.000071,  46.838
    89.4,0.000020,-0.000000,0.000023,-0.000071,  46.839
    89.6,0.000022,0.000002,-0.000030,-0.000094,  46.835
    89.8,0.000019,0.000005,-0.000079,-0.000071,  46.838
    90.0,0.000025,0.000002,-0.000132,-0.000071,  46.841
    90.2,0.000019,0.000002,-0.000210,-0.000094,  46.842
    90.4,0.000019,0.000005,-0.000259,-0.000071,  46.844
    90.6,0.000022,0.000002,-0.000308,-0.000084,  46.845
    90.8,0.000022,0.000005,-0.000346,-0.000107,  46.844
    91.0,0.000025,0.000008,-0.000332,-0.000071,  46.850
    91.2,0.000029,0.000011,-0.000293,-0.000084,  46.851
    91.4,0.000029,0.000013,-0.000231,-0.000084,  46.854
    91.6,0.000025,0.000014,-0.000202,-0.000084,  46.850
    91.8,0.000029,0.000015,-0.000178,-0.000071,  46.855
    92.0,0.000029,0.000018,-0.000153,-0.000071,  46.858
    92.2,0.000025,0.000021,-0.000149,-0.000058,  46.857
    92.4,0.000031,0.000021,-0.000159,-0.000071,  46.873
    92.6,0.000031,0.000021,-0.000188,-0.000071,  46.878
    92.8,0.000028,0.000025,-0.000231,-0.000058,  46.877
    93.0,0.000034,0.000027,-0.000225,-0.000071,  46.876
    93.2,0.000037,0.000028,-0.000225,-0.000036,  46.875
    93.4,0.000033,0.000025,-0.000221,-0.000058,  46.879
    93.6,0.000039,0.000025,-0.000249,-0.000071,  46.880
    93.8,0.000039,0.000022,-0.000312,-0.000071,  46.881
    94.0,0.000030,0.000024,-0.000389,-0.000094,  46.878
    94.2,0.000029,0.000024,-0.000413,-0.000084,  46.885
    94.4,0.000029,0.000022,-0.000418,-0.000097,  46.886
    94.6,0.000025,0.000025,-0.000418,-0.000120,  46.890
    94.8,0.000029,0.000022,-0.000501,-0.000084,  46.884
    95.0,0.000029,0.000024,-0.000616,-0.000084,  46.884
    95.2,0.000025,0.000021,-0.000771,-0.000107,  46.887
    95.4,0.000029,0.000023,-0.000756,-0.000071,  46.887
    95.6,0.000029,0.000022,-0.000703,-0.000084,  46.888
    95.8,0.000028,0.000026,-0.000582,-0.000071,  46.894
    96.0,0.000034,0.000025,-0.000535,-0.000071,  46.893
    96.2,0.000037,0.000023,-0.000496,-0.000049,  46.895
    96.4,0.000033,0.000022,-0.000472,-0.000036,  46.891
    96.6,0.000037,0.000023,-0.000419,-0.000071,  46.890
    96.8,0.000037,0.000025,-0.000366,-0.000049,  46.892
    97.0,0.000033,0.000025,-0.000302,-0.000036,  46.892
    97.2,0.000042,0.000035,-0.000292,-0.000071,  46.896
    97.4,0.000042,0.000039,-0.000316,-0.000036,  46.895
    97.6,0.000047,0.000036,-0.000359,-0.000058,  46.897
    97.8,0.000041,0.000043,-0.000325,-0.000058,  46.898
    98.0,0.000050,0.000045,-0.000276,-0.000058,  46.894
    98.2,0.000055,0.000049,-0.000203,-0.000045,  46.896
    98.4,0.000056,0.000051,-0.000179,-0.000068,  46.893
    98.6,0.000068,0.000057,-0.000189,-0.000032,  46.900
    98.8,0.000073,0.000065,-0.000202,-0.000032,  46.899
    99.0,0.000072,0.000075,-0.000202,-0.000032,  46.904
    99.2,0.000081,0.000085,-0.000202,-0.000032,  46.899
    99.4,0.000089,0.000086,-0.000202,-0.000032,  46.903
    99.6,0.000093,0.000089,-0.000186,-0.000068,  46.903
    99.8,0.000105,0.000097,-0.000180,-0.000019,  46.899
   100.0,0.000113,0.000105,-0.000180,-0.000019,  46.901
   100.2,0.000111,0.000111,-0.000184,-0.000055,  46.910
   100.4,0.000120,0.000116,-0.000154,-0.000006,  46.906
   100.6,0.000128,0.000125,-0.000130,-0.000006,  46.907
   100.8,0.000132,0.000134,-0.000100,-0.000042,  46.905
   101.0,0.000147,0.000142,-0.000017,-0.000006,  46.906
   101.2,0.000145,0.000148,0.000091,-0.000006,  46.908
   101.4,0.000153,0.000152,0.000223,-0.000042,  46.906
   101.6,0.000156,0.000158,0.000243,-0.000029,  46.905
   101.8,0.000155,0.000160,0.000224,-0.000029,  46.904
   102.0,0.000164,0.000163,0.000167,-0.000064,  46.903
   102.2,0.000164,0.000170,0.000177,-0.000051,  46.907
   102.4,0.000166,0.000174,0.000207,-0.000029,  46.905
   102.6,0.000172,0.000173,0.000241,-0.000064,  46.906
   102.8,0.000175,0.000178,0.000262,-0.000051,  46.909
   103.0,0.000178,0.000178,0.000257,-0.000029,  46.912
   103.2,0.000178,0.000176,0.000249,-0.000064,  46.909
   103.4,0.000184,0.000175,0.000287,-0.000051,  46.908
   103.6,0.000187,0.000173,0.000322,-0.000029,  46.908
   103.8,0.000181,0.000174,0.000386,-0.000064,  46.912
   104.0,0.000183,0.000179,0.000441,-0.000029,  46.908
   104.2,0.000181,0.000179,0.000480,-0.000019,  46.909
   104.4,0.000174,0.000178,0.000530,-0.000055,  46.907
   104.6,0.000178,0.000182,0.000546,-0.000006,  46.908
   104.8,0.000184,0.000180,0.000527,-0.000019,  46.908
   105.0,0.000187,0.000175,0.000500,-0.000055,  46.904
   105.2,0.000190,0.000180,0.000565,-0.000006,  46.901
   105.4,0.000195,0.000178,0.000674,-0.000019,  46.902
   105.6,0.000200,0.000178,0.000823,-0.000019,  46.902
   105.8,0.000203,0.000182,0.000879,-0.000019,  46.903
   106.0,0.000208,0.000189,0.000911,-0.000032,  46.902
   106.2,0.000216,0.000189,0.000920,-0.000032,  46.903
   106.4,0.000221,0.000194,0.000976,-0.000032,  46.902
   106.6,0.000226,0.000197,0.001056,-0.000019,  46.901
   106.8,0.000237,0.000199,0.001141,-0.000019,  46.899
   107.0,0.000250,0.000203,0.001246,-0.000055,  46.898
   107.2,0.000263,0.000207,0.001196,-0.000006,  46.896
   107.4,0.000279,0.000217,0.001087,-0.000019,  46.895
   107.6,0.000294,0.000229,0.000925,-0.000019,  46.893
   107.8,0.000310,0.000236,0.001102,-0.000019,  46.890
   108.0,0.000331,0.000247,0.001411,0.000003,  46.884
   108.2,0.000352,0.000262,0.001854,-0.000032,  46.887
   108.4,0.000370,0.000272,0.002223,-0.000032,  46.884
   108.6,0.000394,0.000282,0.002627,-0.000032,  46.879
   108.8,0.000420,0.000291,0.003061,-0.000081,  46.876
   109.0,0.000441,0.000298,0.003369,-0.000045,  46.877
   109.2,0.000473,0.000307,0.003630,-0.000045,  46.872
   109.4,0.000498,0.000323,0.003852,-0.000094,  46.877
   109.6,0.000532,0.000338,0.004345,-0.000058,  46.873
   109.8,0.000568,0.000357,0.004948,-0.000045,  46.870
   110.0,0.000601,0.000375,0.005662,-0.000081,  46.862
   110.2,0.000647,0.000401,0.006184,-0.000045,  46.861
   110.4,0.000697,0.000424,0.006653,-0.000045,  46.862
   110.6,0.000745,0.000447,0.007084,-0.000081,  46.859
   110.8,0.000807,0.000483,0.007576,-0.000045,  46.860
   111.0,0.000860,0.000516,0.008074,-0.000058,  46.855
   111.2,0.000899,0.000544,0.008590,-0.000081,  46.851
   111.4,0.000957,0.000582,0.009242,-0.000045,  46.855
   111.6,0.000998,0.000617,0.009949,-0.000058,  46.856
   111.8,0.001066,0.000657,0.010725,-0.000081,  46.855
   112.0,0.001142,0.000701,0.011543,-0.000045,  46.859
   112.2,0.001222,0.000751,0.012394,-0.000058,  46.858
   112.4,0.001302,0.000800,0.013305,-0.000081,  46.856
   112.6,0.001388,0.000853,0.014218,-0.000045,  46.857
   112.8,0.001494,0.000912,0.015145,-0.000058,  46.860
   113.0,0.001599,0.000969,0.016096,-0.000058,  46.859
   113.2,0.001698,0.001021,0.017228,-0.000045,  46.863
   113.4,0.001812,0.001083,0.018460,-0.000058,  46.857
   113.6,0.001930,0.001151,0.019785,-0.000058,  46.857
   113.8,0.002050,0.001226,0.020885,-0.000058,  46.856
   114.0,0.002185,0.001300,0.021897,-0.000058,  46.861
   114.2,0.002322,0.001371,0.022877,-0.000058,  46.857
   114.4,0.002458,0.001460,0.023753,-0.000081,  46.856
   114.6,0.002614,0.001544,0.025118,-0.000058,  46.858
   114.8,0.002775,0.001637,0.026637,-0.000071,  46.856
   115.0,0.002937,0.001735,0.028312,-0.000094,  46.860
   115.2,0.003111,0.001835,0.030014,-0.000058,  46.851
   115.4,0.003296,0.001937,0.031815,-0.000045,  46.854
   115.6,0.003488,0.002047,0.033699,-0.000081,  46.852
   115.8,0.003691,0.002141,0.035646,-0.000045,  46.857
   116.0,0.003900,0.002232,0.037661,-0.000045,  46.858
   116.2,0.004114,0.002323,0.039764,-0.000068,  46.852
   116.4,0.004339,0.002410,0.041915,-0.000068,  46.855
   116.6,0.004569,0.002525,0.044095,-0.000068,  46.852
   116.8,0.004801,0.002659,0.046352,-0.000090,  46.853
   117.0,0.005042,0.002807,0.048728,-0.000090,  46.852
   117.2,0.005302,0.002947,0.051201,-0.000068,  46.853
   117.4,0.005570,0.003092,0.053751,-0.000116,  46.852
   117.6,0.005848,0.003240,0.056356,-0.000081,  46.849
   117.8,0.006135,0.003393,0.059034,-0.000045,  46.843
   118.0,0.006420,0.003553,0.061763,-0.000094,  46.838
   118.2,0.006721,0.003725,0.064650,-0.000058,  46.835
   118.4,0.006984,0.003894,0.067632,-0.000045,  46.832
   118.6,0.007228,0.004069,0.070729,-0.000081,  46.836
   118.8,0.007466,0.004250,0.073926,-0.000045,  46.832
   119.0,0.007681,0.004435,0.077213,-0.000045,  46.833
   119.2,0.007984,0.004632,0.080616,-0.000081,  46.835
   119.4,0.008324,0.004836,0.084027,-0.000045,  46.833
   119.6,0.008684,0.005035,0.087508,-0.000045,  46.838
   119.8,0.009036,0.005247,0.091047,-0.000045,  46.837
   120.0,0.009410,0.005459,0.094672,-0.000032,  46.833
   120.2,0.009795,0.005685,0.098377,-0.000045,  46.837
   120.4,0.010197,0.005913,0.102175,-0.000032,  46.835
   120.6,0.010610,0.006156,0.105536,-0.000032,  46.836
   120.8,0.011040,0.006398,0.108723,-0.000032,  46.838
   121.0,0.011470,0.006646,0.111712,-0.000032,  46.842
   121.2,0.011899,0.006896,0.114508,-0.000068,  46.840
   121.4,0.012350,0.007150,0.118520,-0.000019,  46.838
   121.6,0.012808,0.007414,0.122911,-0.000019,  46.841
   121.8,0.013268,0.007683,0.127729,-0.000055,  46.839
   122.0,0.013747,0.007954,0.132275,-0.000006,  46.837
   122.2,0.014233,0.008229,0.136910,-0.000019,  46.835
   122.4,0.014722,0.008509,0.141635,-0.000055,  46.835
   122.6,0.015230,0.008753,0.146280,-0.000006,  46.841
   122.8,0.015742,0.008973,0.150938,-0.000006,  46.838
   123.0,0.016254,0.009182,0.155611,-0.000006,  46.842
   123.2,0.016788,0.009375,0.160744,-0.000019,  46.840
   123.4,0.017330,0.009658,0.166113,0.000003,  46.841
   123.6,0.017880,0.009968,0.171714,0.000003,  46.837
   123.8,0.018454,0.010307,0.176848,-0.000019,  46.838
   124.0,0.019022,0.010629,0.181836,0.000030,  46.837
   124.2,0.019593,0.010953,0.186667,0.000030,  46.846
   124.4,0.020183,0.011284,0.192235,0.000007,  46.841
   124.6,0.020770,0.011619,0.198072,0.000043,  46.841
   124.8,0.021357,0.011954,0.204222,0.000020,  46.838
   125.0,0.021955,0.012299,0.209953,0.000020,  46.839
   125.2,0.022473,0.012642,0.215591,0.000020,  46.843
   125.4,0.022952,0.012983,0.221153,-0.000003,  46.846
   125.6,0.023403,0.013335,0.227213,0.000020,  46.841
   125.8,0.023809,0.013692,0.233479,0.000020,  46.839
   126.0,0.024398,0.014056,0.239978,-0.000003,  46.841
   126.2,0.025044,0.014425,0.246393,0.000020,  46.844
   126.4,0.025735,0.014802,0.252845,0.000020,  46.848
   126.6,0.026394,0.015180,0.259365,0.000020,  46.857
   126.8,0.027050,0.015561,0.265978,0.000033,  46.852
   127.0,0.027728,0.015945,0.272676,0.000033,  46.860
   127.2,0.028409,0.016331,0.279447,0.000020,  46.861
   127.4,0.029091,0.016727,0.284858,0.000033,  46.865
   127.6,0.029792,0.017108,0.289594,0.000020,  46.861
   127.8,0.030475,0.017493,0.293586,0.000020,  46.862
   128.0,0.031169,0.017883,0.296851,-0.000003,  46.858
   128.2,0.031862,0.018283,0.303139,0.000020,  46.862
   128.4,0.032560,0.018686,0.310220,0.000020,  46.861
   128.6,0.033278,0.019100,0.318174,0.000033,  46.860
   128.8,0.033993,0.019521,0.325408,0.000020,  46.860
   129.0,0.034712,0.019940,0.332692,0.000056,  46.861
   129.2,0.035451,0.020371,0.340031,0.000069,  46.858
   129.4,0.036190,0.020731,0.347318,0.000033,  46.867
   129.6,0.036927,0.021068,0.354606,0.000069,  46.864
   129.8,0.037669,0.021367,0.361897,0.000082,  46.863
   130.0,0.038421,0.021640,0.369001,0.000046,  46.866
   130.2,0.039171,0.022041,0.376001,0.000082,  46.865
   130.4,0.039918,0.022474,0.382901,0.000059,  46.866
   130.6,0.040683,0.022936,0.390197,0.000046,  46.866
   130.8,0.041442,0.023371,0.397650,0.000046,  46.864
   131.0,0.042191,0.023811,0.405242,0.000023,  46.867
   131.2,0.042951,0.024254,0.412781,0.000046,  46.865
   131.4,0.043714,0.024690,0.420418,0.000046,  46.871
   131.6,0.044473,0.025128,0.428051,0.000023,  46.866
   131.8,0.045245,0.025561,0.435677,0.000046,  46.868
   132.0,0.045911,0.026005,0.443306,0.000046,  46.866
   132.2,0.046522,0.026457,0.450919,0.000023,  46.869
   132.4,0.047088,0.026913,0.458547,0.000059,  46.868
   132.6,0.047601,0.027358,0.466136,0.000059,  46.874
   132.8,0.048320,0.027811,0.473716,0.000037,  46.871
   133.0,0.049105,0.028270,0.481285,0.000072,  46.869
   133.2,0.049938,0.028717,0.488808,0.000059,  46.873
   133.4,0.050720,0.029160,0.496286,0.000037,  46.868
   133.6,0.051488,0.029608,0.503892,0.000072,  46.868
   133.8,0.052267,0.030054,0.511537,0.000072,  46.868
   134.0,0.053038,0.030489,0.519147,0.000072,  46.866
   134.2,0.053795,0.030928,0.525662,0.000085,  46.869
   134.4,0.054561,0.031377,0.531593,0.000085,  46.859
   134.6,0.055330,0.031821,0.536892,0.000085,  46.867
   134.8,0.056091,0.032274,0.541527,0.000098,  46.870
   135.0,0.056867,0.032723,0.548502,0.000098,  46.870
   135.2,0.057628,0.033170,0.556030,0.000098,  46.860
   135.4,0.058385,0.033622,0.564195,0.000063,  46.865
   135.6,0.059143,0.034072,0.571703,0.000111,  46.867
   135.8,0.059899,0.034521,0.579190,0.000098,  46.866
   136.0,0.060666,0.034970,0.586588,0.000063,  46.868
   136.2,0.061428,0.035346,0.593965,0.000098,  46.865
   136.4,0.062164,0.035687,0.601270,0.000085,  46.864
   136.6,0.062905,0.035982,0.608491,0.000050,  46.860
   136.8,0.063629,0.036252,0.615864,0.000076,  46.862
   137.0,0.064359,0.036650,0.623203,0.000089,  46.863
   137.2,0.065095,0.037078,0.630626,0.000053,  46.862
   137.4,0.065822,0.037540,0.637977,0.000089,  46.862
   137.6,0.066538,0.037967,0.645207,0.000111,  46.860
   137.8,0.067265,0.038400,0.652434,0.000076,  46.866
   138.0,0.067975,0.038827,0.659531,0.000124,  46.864
   138.2,0.068676,0.039248,0.666512,0.000124,  46.862
   138.4,0.069385,0.039666,0.673413,0.000102,  46.862
   138.6,0.070079,0.040075,0.680334,0.000137,  46.862
   138.8,0.070676,0.040485,0.687281,0.000137,  46.861
   139.0,0.071219,0.040896,0.694148,0.000115,  46.860
   139.2,0.071706,0.041302,0.700962,0.000137,  46.858
   139.4,0.072151,0.041700,0.707730,0.000137,  46.849
   139.6,0.072773,0.042095,0.714299,0.000102,  46.852
   139.8,0.073445,0.042496,0.720857,0.000137,  46.856
   140.0,0.074162,0.042893,0.727354,0.000124,  46.851
   140.2,0.074820,0.043286,0.733738,0.000124,  46.854
   140.4,0.075470,0.043686,0.740217,0.000124,  46.850
   140.6,0.076125,0.044080,0.746682,0.000124,  46.850
   140.8,0.076771,0.044467,0.753148,0.000124,  46.849
   141.0,0.077406,0.044851,0.758649,0.000124,  46.853
   141.2,0.078047,0.045226,0.763620,0.000137,  46.856
   141.4,0.078668,0.045597,0.768124,0.000137,  46.852
   141.6,0.079271,0.045962,0.771957,0.000115,  46.855
   141.8,0.079874,0.046330,0.777631,0.000137,  46.856
   142.0,0.080466,0.046684,0.783753,0.000137,  46.852
   142.2,0.081043,0.047046,0.790210,0.000115,  46.852
   142.4,0.081624,0.047399,0.796130,0.000137,  46.850
   142.6,0.082189,0.047750,0.802016,0.000137,  46.857
   142.8,0.082756,0.048093,0.807784,0.000115,  46.854
   143.0,0.083320,0.048386,0.813540,0.000137,  46.860
   143.2,0.083878,0.048648,0.819381,0.000137,  46.864
   143.4,0.084422,0.048884,0.825155,0.000115,  46.860
   143.6,0.084966,0.049095,0.830941,0.000115,  46.858
   143.8,0.085501,0.049392,0.836672,0.000115,  46.857
   144.0,0.086027,0.049721,0.842202,0.000092,  46.861
   144.2,0.086554,0.050073,0.847620,0.000092,  46.858
   144.4,0.087046,0.050384,0.852910,0.000115,  46.860
   144.6,0.087516,0.050687,0.857918,0.000092,  46.856
   144.8,0.087977,0.050991,0.863023,0.000079,  46.861
   145.0,0.088458,0.051288,0.867955,0.000102,  46.858
   145.2,0.088927,0.051579,0.872793,0.000079,  46.863
   145.4,0.089412,0.051872,0.877430,0.000066,  46.855
   145.6,0.089808,0.052165,0.881903,0.000102,  46.855
   145.8,0.090162,0.052449,0.886052,0.000066,  46.859
   146.0,0.090485,0.052739,0.890717,0.000066,  46.860
   146.2,0.090765,0.053015,0.895561,0.000089,  46.862
   146.4,0.091156,0.053276,0.900518,0.000053,  46.864
   146.6,0.091582,0.053533,0.905076,0.000053,  46.865
   146.8,0.092022,0.053789,0.909445,0.000076,  46.860
   147.0,0.092420,0.054039,0.913705,0.000063,  46.859
   147.2,0.092805,0.054288,0.918079,0.000063,  46.859
   147.4,0.093188,0.054525,0.922336,0.000027,  46.857
   147.6,0.093558,0.054760,0.926459,0.000063,  46.854
   147.8,0.093915,0.054988,0.930029,0.000076,  46.853
   148.0,0.094269,0.055213,0.933279,0.000050,  46.852
   148.2,0.094614,0.055430,0.936038,0.000023,  46.846
   148.4,0.094946,0.055646,0.938553,-0.000012,  46.827
   148.6,0.095279,0.055860,0.942149,-0.000038,  46.826
   148.8,0.095605,0.056071,0.945874,-0.000016,  46.823
   149.0,0.095928,0.056284,0.949912,-0.000051,  46.820
   149.2,0.096251,0.056485,0.953596,-0.000064,  46.814
   149.4,0.096552,0.056681,0.957136,-0.000055,  46.812
   149.6,0.096853,0.056868,0.960705,-0.000103,  46.809
   149.8,0.097134,0.057026,0.964107,-0.000081,  46.803
   150.0,0.097399,0.057169,0.967454,-0.000071,  46.800
   150.2,0.097671,0.057289,0.970734,-0.000107,  46.795
   150.4,0.097920,0.057392,0.974038,-0.000097,  46.786
   150.6,0.098173,0.057548,0.977278,-0.000097,  46.789
   150.8,0.098419,0.057718,0.980350,-0.000133,  46.780
   151.0,0.098665,0.057892,0.983449,-0.000123,  46.775
   151.2,0.098902,0.058046,0.986571,-0.000149,  46.771
   151.4,0.099125,0.058198,0.989328,-0.000198,  46.764
   151.6,0.099349,0.058348,0.992359,-0.000189,  46.763
   151.8,0.099566,0.058493,0.995504,-0.000215,  46.747
   152.0,0.099773,0.058630,0.998567,-0.000263,  46.735
   152.2,0.099974,0.058768,1.001575,-0.000254,  46.720
   152.4,0.100142,0.058898,1.004412,-0.000267,  46.694
   152.6,0.100288,0.059023,1.007182,-0.000315,  46.687
   152.8,0.100426,0.059144,1.010039,-0.000306,  46.675
   153.0,0.100535,0.059248,1.012702,-0.000332,  46.661
   153.2,0.100680,0.059337,1.015266,-0.000394,  46.652
   153.4,0.100832,0.059420,1.017967,-0.000384,  46.637
   153.6,0.100994,0.059532,1.020592,-0.000397,  46.634
   153.8,0.101165,0.059660,1.023244,-0.000446,  46.614
   154.0,0.101347,0.059802,1.025990,-0.000436,  46.581
   154.2,0.101529,0.059909,1.028760,-0.000449,  46.569
   154.4,0.101688,0.060015,1.031650,-0.000475,  46.554
   154.6,0.101843,0.060107,1.034353,-0.000475,  46.539
   154.8,0.101982,0.060201,1.036866,-0.000501,  46.523
   155.0,0.102128,0.060291,1.039296,-0.000527,  46.506
   155.2,0.102267,0.060377,1.041506,-0.000527,  46.470
   155.4,0.102403,0.060476,1.043494,-0.000553,  46.445
   155.6,0.102552,0.060577,1.045391,-0.000579,  46.427
   155.8,0.102698,0.060685,1.046949,-0.000628,  46.402
   156.0,0.102850,0.060784,1.049312,-0.000605,  46.362
   156.2,0.102996,0.060872,1.051817,-0.000644,  46.344
   156.4,0.103132,0.060962,1.054337,-0.000693,  46.310
   156.6,0.103268,0.061054,1.056968,-0.000670,  46.288
   156.8,0.103418,0.061144,1.059494,-0.000696,  46.243
   157.0,0.103564,0.061234,1.062157,-0.000732,  46.219
   157.2,0.103717,0.061322,1.065064,-0.000709,  46.182
   157.4,0.103876,0.061403,1.067867,-0.000735,  46.127
   157.6,0.104039,0.061488,1.070812,-0.000784,  46.105
   157.8,0.104215,0.061569,1.073127,-0.000797,  46.068
   158.0,0.104388,0.061682,1.075017,-0.000823,  46.020
   158.2,0.104562,0.061806,1.076585,-0.000872,  45.983
   158.4,0.104748,0.061935,1.079697,-0.000885,  45.937
   158.6,0.104935,0.062059,1.083144,-0.000862,  45.892
   158.8,0.105125,0.062185,1.087058,-0.000898,  45.848
   159.0,0.105315,0.062311,1.090590,-0.000862,  45.790
   159.2,0.105518,0.062429,1.094038,-0.000840,  45.744
   159.4,0.105719,0.062546,1.097281,-0.000875,  45.674
   159.6,0.105926,0.062659,1.100801,-0.000827,  45.642
   159.8,0.106120,0.062799,1.104234,-0.000840,  45.576
   160.0,0.106301,0.062950,1.107566,-0.000875,  45.544
   160.2,0.106491,0.063115,1.111307,-0.000827,  45.463
   160.4,0.106665,0.063274,1.115086,-0.000840,  45.398
   160.6,0.106919,0.063441,1.118767,-0.000862,  45.345
   160.8,0.107214,0.063616,1.122872,-0.000814,  45.278
   161.0,0.107539,0.063794,1.126883,-0.000801,  45.212
   161.2,0.107844,0.063987,1.130937,-0.000801,  45.138
   161.4,0.108153,0.064194,1.135023,-0.000814,  45.064
   161.6,0.108465,0.064391,1.139142,-0.000814,  45.004
   161.8,0.108808,0.064590,1.143162,-0.000840,  44.929
   162.0,0.109164,0.064797,1.147084,-0.000801,  44.847
   162.2,0.109535,0.065040,1.150751,-0.000775,  44.774
   162.4,0.109939,0.065301,1.154319,-0.000748,  44.675
   162.6,0.110357,0.065585,1.157627,-0.000758,  44.609
   162.8,0.110803,0.065865,1.162423,-0.000696,  44.524
   163.0,0.111252,0.066141,1.167580,-0.000657,  44.437
   163.2,0.111706,0.066428,1.173104,-0.000641,  44.363
   163.4,0.112180,0.066733,1.178669,-0.000579,  44.249
   163.6,0.112689,0.067053,1.184301,-0.000540,  44.184
   163.8,0.113219,0.067388,1.189995,-0.000524,  44.082
   164.0,0.113783,0.067678,1.195958,-0.000449,  43.986
   164.2,0.114345,0.067955,1.201850,-0.000397,  43.890
   164.4,0.114927,0.068213,1.207834,-0.000394,  43.775
   164.6,0.115518,0.068461,1.214200,-0.000319,  43.700
   164.8,0.116137,0.068818,1.220811,-0.000293,  43.599
   165.0,0.116793,0.069212,1.227343,-0.000276,  43.493
   165.2,0.117458,0.069637,1.233982,-0.000202,  43.387
   165.4,0.118145,0.070064,1.240911,-0.000162,  43.271
   165.6,0.118867,0.070503,1.247774,-0.000146,  43.185
   165.8,0.119604,0.070963,1.254930,-0.000058,  43.085
   166.0,0.120339,0.071424,1.262406,-0.000006,  42.986
   166.2,0.121096,0.071895,1.269827,0.000023,  42.879
   166.4,0.121861,0.072377,1.277358,0.000111,  42.743
   166.6,0.122530,0.072869,1.284648,0.000163,  42.666
   166.8,0.123155,0.073374,1.292056,0.000193,  42.554
   167.0,0.123733,0.073893,1.299994,0.000268,  42.455
   167.2,0.124276,0.074424,1.307467,0.000320,  42.353
   167.4,0.125061,0.074967,1.315285,0.000336,  42.233
   167.6,0.125931,0.075518,1.323252,0.000437,  42.136
   167.8,0.126883,0.076079,1.330728,0.000477,  42.034
   168.0,0.127764,0.076653,1.338334,0.000516,  41.933
   168.2,0.128671,0.077227,1.346298,0.000568,  41.840
   168.4,0.129573,0.077819,1.353963,0.000607,  41.747
   168.6,0.130492,0.078421,1.361758,0.000659,  41.665
   168.8,0.131436,0.079033,1.368516,0.000725,  41.558
   169.0,0.132386,0.079652,1.374897,0.000777,  41.469
   169.2,0.133350,0.080282,1.380644,0.000842,  41.376
   169.4,0.134343,0.080922,1.385734,0.000872,  41.259
   169.6,0.135350,0.081552,1.393126,0.000960,  41.186
   169.8,0.136292,0.082182,1.400899,0.001012,  41.101
   170.0,0.137224,0.082809,1.409076,0.001029,  41.008
   170.2,0.138129,0.083427,1.416611,0.001116,  40.935
   170.4,0.139084,0.084046,1.424013,0.001169,  40.837
   170.6,0.140066,0.084666,1.431265,0.001199,  40.776
   170.8,0.141057,0.085208,1.438636,0.001286,  40.700
   171.0,0.142034,0.085706,1.446139,0.001326,  40.632
   171.2,0.143022,0.086168,1.453775,0.001342,  40.557
   171.4,0.144019,0.086590,1.460985,0.001417,  40.485
   171.6,0.144969,0.087173,1.467442,0.001456,  40.434
   171.8,0.145913,0.087795,1.473714,0.001473,  40.375
   172.0,0.146851,0.088456,1.480650,0.001548,  40.319
   172.2,0.147763,0.089056,1.487075,0.001587,  40.262
   172.4,0.148671,0.089642,1.493272,0.001604,  40.195
   172.6,0.149567,0.090219,1.499565,0.001666,  40.167
   172.8,0.150447,0.090794,1.505635,0.001692,  40.120
   173.0,0.151306,0.091366,1.511138,0.001709,  40.086
   173.2,0.152159,0.091927,1.517025,0.001757,  40.047
   173.4,0.152873,0.092471,1.522659,0.001784,  40.014
   173.6,0.153506,0.093002,1.527684,0.001787,  39.980
   173.8,0.154076,0.093527,1.533116,0.001849,  39.963
   174.0,0.154554,0.094051,1.538277,0.001862,  39.948
   174.2,0.155280,0.094564,1.542810,0.001853,  39.922
   174.4,0.156063,0.095074,1.547385,0.001914,  39.911
   174.6,0.156904,0.095559,1.552015,0.001928,  39.910
   174.8,0.157633,0.096032,1.555971,0.001941,  39.907
   175.0,0.158327,0.096489,1.559947,0.001954,  39.905
   175.2,0.159001,0.096932,1.563971,0.001954,  39.910
   175.4,0.159666,0.097353,1.567278,0.001954,  39.916
   175.6,0.160306,0.097769,1.570255,0.001980,  39.925
   175.8,0.160938,0.098168,1.572877,0.001993,  39.944
   176.0,0.161537,0.098553,1.574783,0.001993,  39.953
   176.2,0.162108,0.098926,1.576312,0.001984,  39.989
   176.4,0.162666,0.099280,1.578965,0.002019,  40.008
   176.6,0.163192,0.099614,1.581251,0.002019,  40.035
   176.8,0.163677,0.099941,1.583549,0.001997,  40.067
   177.0,0.164153,0.100261,1.585865,0.002019,  40.108
   177.2,0.164619,0.100565,1.588194,0.002019,  40.139
   177.4,0.165071,0.100863,1.589765,0.001997,  40.195
   177.6,0.165506,0.101110,1.591717,0.002019,  40.223
   177.8,0.165924,0.101330,1.593671,0.002019,  40.273
   178.0,0.166331,0.101517,1.594843,0.002006,  40.317
   178.2,0.166719,0.101680,1.595657,0.001980,  40.373
   178.4,0.167049,0.101883,1.595302,0.001976,  40.437
   178.6,0.167341,0.102088,1.594576,0.001976,  40.472
   178.8,0.167595,0.102291,1.595378,0.001928,  40.540
   179.0,0.167880,0.102492,1.596164,0.001950,  40.607
   179.2,0.168162,0.102690,1.596939,0.001950,  40.666
   179.4,0.168435,0.102889,1.597734,0.001914,  40.750
   179.6,0.168686,0.103060,1.598132,0.001924,  40.803
   179.8,0.168908,0.103229,1.597746,0.001924,  40.880
   180.0,0.169120,0.103377,1.597740,0.001888,  40.953
   180.2,0.169282,0.103507,1.597728,0.001898,  41.037
   180.4,0.169404,0.103628,1.596910,0.001885,  41.124
   180.6,0.169507,0.103727,1.596496,0.001849,  41.175
   180.8,0.169565,0.103816,1.596088,0.001858,  41.266
   181.0,0.169670,0.103902,1.594895,0.001845,  41.340
   181.2,0.169785,0.103968,1.594100,0.001784,  41.425
   181.4,0.169890,0.104027,1.592912,0.001793,  41.527
   181.6,0.169967,0.104077,1.591353,0.001780,  41.594
   181.8,0.170011,0.104118,1.590559,0.001731,  41.685
   182.0,0.170052,0.104151,1.588589,0.001741,  41.770
   182.2,0.170091,0.104172,1.586629,0.001728,  41.860
   182.4,0.170108,0.104188,1.585092,0.001692,  41.965
   182.6,0.170126,0.104210,1.583188,0.001666,  42.033
   182.8,0.170130,0.104227,1.581309,0.001653,  42.132
   183.0,0.170115,0.104237,1.579791,0.001653,  42.219
   183.2,0.170103,0.104230,1.577882,0.001626,  42.316
   183.4,0.170050,0.104213,1.576737,0.001600,  42.425
   183.6,0.169988,0.104183,1.574835,0.001539,  42.494
   183.8,0.169903,0.104151,1.572958,0.001561,  42.584
   184.0,0.169823,0.104116,1.570716,0.001535,  42.674
   184.2,0.169744,0.104079,1.568119,0.001486,  42.763
   184.4,0.169647,0.104039,1.565515,0.001509,  42.871
   184.6,0.169529,0.103990,1.562920,0.001483,  42.938
   184.8,0.169407,0.103942,1.560335,0.001434,  43.026
   185.0,0.169264,0.103890,1.557770,0.001421,  43.116
   185.2,0.169111,0.103823,1.554860,0.001408,  43.206
   185.4,0.168963,0.103738,1.551980,0.001372,  43.312
   185.6,0.168801,0.103641,1.548472,0.001359,  43.380
   185.8,0.168635,0.103542,1.545040,0.001355,  43.458
   186.0,0.168461,0.103445,1.540281,0.001307,  43.531
   186.2,0.168294,0.103339,1.537170,0.001294,  43.613
   186.4,0.168113,0.103240,1.534383,0.001303,  43.709
   186.6,0.167922,0.103143,1.531915,0.001254,  43.776
   186.8,0.167735,0.103051,1.528535,0.001228,  43.862
   187.0,0.167531,0.102932,1.524196,0.001251,  43.944
   187.2,0.167302,0.102790,1.519610,0.001202,  44.031
   187.4,0.167070,0.102639,1.516620,0.001189,  44.115
   187.6,0.166874,0.102508,1.513944,0.001212,  44.174
   187.8,0.166687,0.102390,1.511254,0.001163,  44.256
   188.0,0.166520,0.102270,1.508621,0.001150,  44.334
   188.2,0.166363,0.102129,1.505044,0.001172,  44.395
   188.4,0.166134,0.101990,1.501501,0.001137,  44.486
   188.6,0.165895,0.101845,1.498304,0.001159,  44.548
   188.8,0.165630,0.101691,1.494194,0.001156,  44.607
   189.0,0.165370,0.101523,1.490139,0.001156,  44.680
   189.2,0.165095,0.101353,1.486726,0.001143,  44.752
   189.4,0.164826,0.101193,1.482729,0.001143,  44.834
   189.6,0.164543,0.101026,1.479076,0.001130,  44.875
   189.8,0.164242,0.100862,1.475754,0.001116,  44.948
   190.0,0.163943,0.100687,1.473059,0.001103,  45.011
   190.2,0.163638,0.100509,1.470084,0.001090,  45.065
   190.4,0.163329,0.100322,1.467430,0.001055,  45.135
   190.6,0.163019,0.100143,1.463903,0.001090,  45.175
   190.8,0.162714,0.099970,1.459547,0.001064,  45.238
   191.0,0.162406,0.099801,1.455229,0.001029,  45.283
   191.2,0.162094,0.099609,1.451219,0.001064,  45.342
   191.4,0.161775,0.099412,1.447252,0.001038,  45.397
   191.6,0.161441,0.099214,1.443593,0.000989,  45.447
   191.8,0.161096,0.099049,1.439423,0.001025,  45.489
   192.0,0.160770,0.098887,1.435310,0.001012,  45.542
   192.2,0.160430,0.098747,1.430977,0.000963,  45.581
   192.4,0.160097,0.098615,1.427212,0.000986,  45.640
   192.6,0.159760,0.098424,1.422953,0.000986,  45.670
   192.8,0.159406,0.098226,1.418479,0.000963,  45.723
   193.0,0.159061,0.098013,1.414317,0.000973,  45.758
   193.2,0.158693,0.097805,1.409678,0.000960,  45.794
   193.4,0.158319,0.097592,1.404591,0.000924,  45.847
   193.6,0.157935,0.097372,1.400527,0.000960,  45.869
   193.8,0.157615,0.097154,1.396471,0.000947,  45.905
   194.0,0.157315,0.096937,1.392192,0.000911,  45.943
   194.2,0.157059,0.096719,1.387972,0.000947,  45.975
   194.4,0.156821,0.096497,1.383803,0.000934,  46.007
   194.6,0.156465,0.096272,1.378952,0.000898,  46.042
   194.8,0.156093,0.096052,1.374636,0.000934,  46.073
   195.0,0.155685,0.095818,1.370609,0.000920,  46.092
   195.2,0.155280,0.095575,1.366398,0.000872,  46.140
   195.4,0.154851,0.095336,1.361793,0.000907,  46.169
   195.6,0.154417,0.095112,1.356798,0.000894,  46.190
   195.8,0.154032,0.094890,1.351653,0.000894,  46.216
   196.0,0.153660,0.094676,1.347170,0.000894,  46.253
   196.2,0.153316,0.094448,1.343158,0.000894,  46.276
   196.4,0.152944,0.094219,1.339148,0.000894,  46.298
   196.6,0.152550,0.093983,1.335642,0.000894,  46.315
   196.8,0.152167,0.093750,1.332375,0.000881,  46.348
   197.0,0.151766,0.093517,1.329352,0.000881,  46.368
   197.2,0.151362,0.093285,1.326344,0.000859,  46.385
   197.4,0.150947,0.093047,1.322095,0.000881,  46.401
   197.6,0.150529,0.092808,1.317679,0.000868,  46.417
   197.8,0.150125,0.092564,1.312687,0.000846,  46.431
   198.0,0.149704,0.092356,1.307962,0.000868,  46.460
   198.2,0.149276,0.092156,1.303507,0.000855,  46.478
   198.4,0.148851,0.091980,1.298703,0.000833,  46.487
   198.6,0.148416,0.091818,1.294121,0.000855,  46.498
   198.8,0.147972,0.091572,1.289581,0.000842,  46.512
   199.0,0.147537,0.091318,1.285081,0.000806,  46.523
   199.2,0.147088,0.091040,1.280639,0.000829,  46.529
   199.4,0.146653,0.090782,1.276052,0.000816,  46.555
   199.6,0.146237,0.090531,1.271700,0.000780,  46.565
   199.8,0.145827,0.090278,1.267205,0.000816,  46.574
   200.0,0.145392,0.090016,1.262395,0.000803,  46.584
   200.2,0.144956,0.089759,1.257636,0.000767,  46.589
   200.4,0.144511,0.089494,1.253121,0.000803,  46.599
   200.6,0.144081,0.089228,1.248302,0.000790,  46.601
   200.8,0.143665,0.088973,1.243559,0.000754,  46.611
   201.0,0.143246,0.088719,1.239014,0.000790,  46.622
   201.2,0.142867,0.088450,1.234338,0.000790,  46.619
   201.4,0.142515,0.088184,1.229711,0.000741,  46.629
   201.6,0.142178,0.087924,1.225005,0.000777,  46.632
   201.8,0.141872,0.087656,1.219695,0.000777,  46.636
   202.0,0.141445,0.087386,1.214310,0.000728,  46.643
   202.2,0.140989,0.087120,1.209433,0.000764,  46.653
   202.4,0.140506,0.086848,1.204451,0.000764,  46.665
   202.6,0.140044,0.086571,1.199508,0.000741,  46.675
   202.8,0.139599,0.086299,1.195053,0.000777,  46.679
   203.0,0.139145,0.086025,1.190780,0.000764,  46.681
   203.2,0.138688,0.085752,1.186685,0.000751,  46.683
   203.4,0.138248,0.085480,1.182820,0.000751,  46.684
   203.6,0.137798,0.085199,1.179159,0.000738,  46.687
   203.8,0.137328,0.084914,1.175539,0.000725,  46.694
   204.0,0.136861,0.084623,1.172265,0.000725,  46.700
   204.2,0.136381,0.084348,1.168088,0.000725,  46.702
   204.4,0.135912,0.084075,1.163809,0.000712,  46.703
   204.6,0.135461,0.083814,1.158980,0.000676,  46.708
   204.8,0.135004,0.083544,1.154646,0.000725,  46.708
   205.0,0.134547,0.083274,1.150070,0.000712,  46.709
   205.2,0.134094,0.082999,1.145413,0.000676,  46.713
   205.4,0.133637,0.082762,1.140806,0.000725,  46.717
   205.6,0.133167,0.082535,1.136252,0.000712,  46.718
   205.8,0.132685,0.082332,1.131480,0.000676,  46.717
   206.0,0.132205,0.082143,1.126754,0.000712,  46.720
   206.2,0.131723,0.081876,1.122091,0.000698,  46.723
   206.4,0.131245,0.081600,1.117346,0.000663,  46.723
   206.6,0.130763,0.081300,1.112765,0.000698,  46.732
   206.8,0.130280,0.081010,1.108227,0.000698,  46.729
   207.0,0.129806,0.080721,1.103341,0.000663,  46.733
   207.2,0.129319,0.080431,1.098642,0.000698,  46.733
   207.4,0.128837,0.080139,1.094111,0.000698,  46.733
   207.6,0.128372,0.079850,1.089379,0.000663,  46.737
   207.8,0.127897,0.079561,1.084943,0.000698,  46.735
   208.0,0.127486,0.079270,1.080321,0.000685,  46.733
   208.2,0.127108,0.078984,1.075873,0.000650,  46.744
   208.4,0.126760,0.078705,1.071345,0.000685,  46.744
   208.6,0.126448,0.078409,1.066642,0.000672,  46.746
   208.8,0.125997,0.078114,1.061763,0.000659,  46.744
   209.0,0.125525,0.077819,1.057162,0.000659,  46.747
   209.2,0.125015,0.077536,1.052497,0.000682,  46.751
   209.4,0.124551,0.077258,1.047768,0.000682,  46.768
   209.6,0.124088,0.076987,1.043202,0.000633,  46.769
   209.8,0.123645,0.076700,1.038464,0.000669,  46.769
   210.0,0.123165,0.076406,1.033885,0.000669,  46.768
   210.2,0.122669,0.076105,1.029343,0.000646,  46.765
   210.4,0.122176,0.075812,1.024848,0.000669,  46.767
   210.6,0.121684,0.075514,1.020299,0.000669,  46.773
   210.8,0.121189,0.075221,1.016417,0.000682,  46.763
   211.0,0.120697,0.074928,1.012776,0.000669,  46.762
   211.2,0.120214,0.074628,1.009576,0.000669,  46.762
   211.4,0.119731,0.074336,1.006507,0.000682,  46.754
   211.6,0.119248,0.074048,1.002246,0.000633,  46.756
   211.8,0.118756,0.073761,0.997721,0.000669,  46.754
   212.0,0.118254,0.073483,0.992951,0.000682,  46.752
   212.2,0.117750,0.073233,0.988516,0.000633,  46.747
   212.4,0.117266,0.072999,0.984028,0.000669,  46.735
   212.6,0.116790,0.072784,0.979496,0.000646,  46.733
   212.8,0.116324,0.072590,0.975022,0.000633,  46.732
   213.0,0.115845,0.072317,0.970505,0.000633,  46.731
   213.2,0.115357,0.072024,0.965955,0.000611,  46.732
   213.4,0.114876,0.071712,0.961348,0.000633,  46.730
   213.6,0.114399,0.071424,0.956796,0.000620,  46.732
   213.8,0.113916,0.071134,0.952111,0.000598,  46.734
   214.0,0.113443,0.070850,0.947483,0.000620,  46.736
   214.2,0.112957,0.070560,0.942821,0.000607,  46.737
   214.4,0.112462,0.070264,0.938129,0.000584,  46.736
   214.6,0.111974,0.069967,0.933785,0.000607,  46.738
   214.8,0.111486,0.069671,0.929473,0.000607,  46.738
   215.0,0.110996,0.069366,0.925276,0.000571,  46.738
   215.2,0.110516,0.069063,0.920885,0.000594,  46.746
   215.4,0.110098,0.068763,0.916543,0.000581,  46.740
   215.6,0.109711,0.068465,0.911927,0.000545,  46.745
   215.8,0.109367,0.068170,0.907597,0.000581,  46.746
   216.0,0.109050,0.067873,0.903224,0.000581,  46.742
   216.2,0.108593,0.067575,0.898912,0.000545,  46.748
   216.4,0.108113,0.067285,0.894624,0.000581,  46.743
   216.6,0.107593,0.066989,0.890211,0.000581,  46.742
   216.8,0.107107,0.066690,0.885848,0.000568,  46.752
   217.0,0.106608,0.066389,0.881533,0.000581,  46.764
   217.2,0.106123,0.066091,0.877261,0.000568,  46.771
   217.4,0.105639,0.065795,0.872886,0.000568,  46.771
   217.6,0.105152,0.065499,0.869222,0.000581,  46.777
   217.8,0.104682,0.065208,0.865970,0.000568,  46.773
   218.0,0.104206,0.064920,0.862962,0.000555,  46.777
   218.2,0.103737,0.064631,0.860277,0.000519,  46.778
   218.4,0.103272,0.064341,0.856219,0.000555,  46.783
   218.6,0.102791,0.064044,0.851841,0.000555,  46.782
   218.8,0.102310,0.063749,0.847083,0.000506,  46.790
   219.0,0.101820,0.063455,0.842726,0.000542,  46.797
   219.2,0.101333,0.063150,0.838348,0.000542,  46.791
   219.4,0.100845,0.062851,0.834015,0.000493,  46.792
   219.6,0.100370,0.062598,0.829370,0.000529,  46.785
   219.8,0.099885,0.062368,0.824469,0.000529,  46.792
   220.0,0.099395,0.062153,0.819388,0.000506,  46.795
   220.2,0.098918,0.061966,0.815062,0.000493,  46.794
   220.4,0.098435,0.061680,0.811010,0.000480,  46.795
   220.6,0.097943,0.061371,0.807090,0.000457,  46.791
   220.8,0.097458,0.061038,0.803088,0.000431,  46.795
   221.0,0.096993,0.060743,0.799116,0.000454,  46.791
   221.2,0.096525,0.060457,0.795168,0.000418,  46.797
   221.4,0.096068,0.060179,0.791153,0.000418,  46.792
   221.6,0.095608,0.059891,0.787008,0.000441,  46.790
   221.8,0.095142,0.059606,0.782919,0.000405,  46.798
   222.0,0.094679,0.059317,0.778906,0.000418,  46.793
   222.2,0.094282,0.059035,0.774870,0.000441,  46.799
   222.4,0.093915,0.058755,0.770817,0.000405,  46.799
   222.6,0.093584,0.058480,0.766854,0.000405,  46.794
   222.8,0.093285,0.058198,0.762816,0.000428,  46.797
   223.0,0.092847,0.057910,0.758752,0.000392,  46.795
   223.2,0.092391,0.057622,0.754669,0.000428,  46.800
   223.4,0.091892,0.057341,0.750516,0.000450,  46.800
   223.6,0.091433,0.057064,0.746296,0.000450,  46.798
   223.8,0.090965,0.056783,0.742221,0.000450,  46.799
   224.0,0.090514,0.056498,0.738240,0.000415,  46.800
   224.2,0.090053,0.056208,0.734246,0.000415,  46.804
   224.4,0.089577,0.055919,0.730394,0.000428,  46.802
   224.6,0.089110,0.055632,0.726612,0.000415,  46.798
   224.8,0.088651,0.055354,0.722946,0.000415,  46.803
   225.0,0.088192,0.055083,0.719353,0.000379,  46.798
   225.2,0.087747,0.054802,0.715821,0.000379,  46.807
   225.4,0.087295,0.054522,0.712317,0.000402,  46.802
   225.6,0.086835,0.054245,0.708948,0.000366,  46.806
   225.8,0.086387,0.053973,0.705372,0.000402,  46.806
   226.0,0.085947,0.053696,0.701685,0.000437,  46.811
   226.2,0.085504,0.053421,0.697957,0.000402,  46.801
   226.4,0.085071,0.053189,0.694343,0.000437,  46.804
   226.6,0.084625,0.052973,0.690763,0.000437,  46.809
   226.8,0.084177,0.052783,0.687164,0.000402,  46.803
   227.0,0.083723,0.052613,0.683571,0.000437,  46.801
   227.2,0.083282,0.052357,0.679953,0.000437,  46.810
   227.4,0.082842,0.052081,0.676263,0.000389,  46.814
   227.6,0.082402,0.051779,0.672496,0.000424,  46.810
   227.8,0.081959,0.051501,0.668691,0.000411,  46.809
   228.0,0.081516,0.051229,0.664762,0.000376,  46.808
   228.2,0.081068,0.050951,0.660938,0.000411,  46.810
   228.4,0.080633,0.050676,0.657102,0.000411,  46.804
   228.6,0.080202,0.050408,0.653175,0.000389,  46.804
   228.8,0.079774,0.050140,0.649357,0.000411,  46.802
   229.0,0.079403,0.049864,0.645566,0.000385,  46.803
   229.2,0.079060,0.049592,0.641763,0.000363,  46.803
   229.4,0.078753,0.049321,0.638087,0.000398,  46.800
   229.6,0.078477,0.049052,0.634436,0.000385,  46.806
   229.8,0.078069,0.048789,0.630864,0.000363,  46.801
   230.0,0.077640,0.048529,0.627310,0.000398,  46.801
   230.2,0.077181,0.048269,0.623731,0.000385,  46.799
   230.4,0.076759,0.048011,0.620169,0.000385,  46.803
   230.6,0.076334,0.047753,0.616695,0.000398,  46.797
   230.8,0.075913,0.047496,0.613248,0.000398,  46.798
   231.0,0.075496,0.047234,0.609839,0.000385,  46.794
   231.2,0.075072,0.046971,0.606823,0.000385,  46.795
   231.4,0.074653,0.046718,0.603994,0.000385,  46.789
   231.6,0.074233,0.046457,0.601425,0.000385,  46.788
   231.8,0.073811,0.046191,0.598962,0.000363,  46.789
   232.0,0.073386,0.045933,0.595601,0.000385,  46.789
   232.2,0.072968,0.045676,0.591965,0.000372,  46.793
   232.4,0.072557,0.045418,0.588048,0.000350,  46.788
   232.6,0.072139,0.045157,0.584484,0.000372,  46.793
   232.8,0.071728,0.044906,0.580982,0.000372,  46.789
   233.0,0.071318,0.044657,0.577507,0.000350,  46.788
   233.2,0.070908,0.044433,0.574093,0.000372,  46.794
   233.4,0.070498,0.044234,0.570704,0.000372,  46.794
   233.6,0.070089,0.044050,0.567342,0.000350,  46.791
   233.8,0.069680,0.043888,0.563918,0.000336,  46.797
   234.0,0.069278,0.043650,0.560429,0.000336,  46.798
   234.2,0.068873,0.043399,0.556871,0.000301,  46.800
   234.4,0.068474,0.043129,0.553620,0.000301,  46.804
   234.6,0.068073,0.042880,0.550428,0.000323,  46.803
   234.8,0.067666,0.042629,0.547307,0.000288,  46.803
   235.0,0.067262,0.042390,0.544050,0.000323,  46.807
   235.2,0.066868,0.042142,0.540729,0.000346,  46.801
   235.4,0.066471,0.041894,0.537365,0.000310,  46.804
   235.6,0.066090,0.041650,0.533941,0.000346,  46.802
   235.8,0.065758,0.041405,0.530391,0.000333,  46.813
   236.0,0.065451,0.041162,0.526814,0.000297,  46.811
   236.2,0.065187,0.040921,0.523551,0.000333,  46.809
   236.4,0.064940,0.040679,0.520421,0.000320,  46.804
   236.6,0.064575,0.040437,0.517402,0.000284,  46.811
   236.8,0.064190,0.040200,0.514322,0.000320,  46.808
   237.0,0.063781,0.039960,0.511295,0.000320,  46.812
   237.2,0.063390,0.039724,0.508301,0.000320,  46.811
   237.4,0.062997,0.039486,0.505231,0.000320,  46.810
   237.6,0.062603,0.039255,0.502151,0.000307,  46.810
   237.8,0.062235,0.039026,0.498983,0.000307,  46.811
   238.0,0.061869,0.038797,0.496355,0.000307,  46.807
   238.2,0.061513,0.038564,0.493982,0.000294,  46.805
   238.4,0.061149,0.038335,0.491840,0.000294,  46.806
   238.6,0.060781,0.038100,0.489926,0.000271,  46.807
   238.8,0.060408,0.037874,0.487161,0.000307,  46.807
   239.0,0.060047,0.037648,0.484199,0.000294,  46.807
   239.2,0.059684,0.037420,0.480990,0.000271,  46.808
   239.4,0.059321,0.037196,0.477990,0.000307,  46.805
   239.6,0.058964,0.036974,0.474927,0.000294,  46.811
   239.8,0.058604,0.036757,0.471868,0.000271,  46.805
   240.0,0.058245,0.036567,0.468889,0.000294,  46.807
   240.2,0.057889,0.036388,0.465896,0.000281,  46.804
   240.4,0.057530,0.036227,0.462958,0.000258,  46.803
   240.6,0.057175,0.036078,0.459698,0.000245,  46.806
   240.8,0.056817,0.035872,0.456239,0.000245,  46.807
   241.0,0.056456,0.035647,0.452650,0.000223,  46.806
   241.2,0.056095,0.035409,0.449762,0.000210,  46.807
   241.4,0.055744,0.035187,0.447099,0.000232,  46.803
   241.6,0.055393,0.034968,0.444692,0.000210,  46.805
   241.8,0.055042,0.034747,0.441943,0.000232,  46.806
   242.0,0.054698,0.034526,0.439107,0.000255,  46.805
   242.2,0.054354,0.034312,0.436213,0.000219,  46.810
   242.4,0.054007,0.034098,0.433496,0.000255,  46.812
   242.6,0.053716,0.033884,0.430816,0.000242,  46.807
   242.8,0.053446,0.033666,0.428147,0.000206,  46.814
   243.0,0.053219,0.033455,0.425452,0.000242,  46.812
   243.2,0.053009,0.033239,0.422774,0.000229,  46.816
   243.4,0.052695,0.033035,0.420018,0.000193,  46.821
   243.6,0.052361,0.032829,0.417320,0.000229,  46.818
   243.8,0.052008,0.032620,0.414670,0.000229,  46.821
   244.0,0.051677,0.032417,0.411990,0.000229,  46.819
   244.2,0.051350,0.032217,0.409281,0.000229,  46.828
   244.4,0.051024,0.032017,0.406550,0.000229,  46.826
   244.6,0.050700,0.031812,0.403765,0.000216,  46.825
   244.8,0.050370,0.031610,0.401486,0.000216,  46.824
   245.0,0.050044,0.031408,0.399429,0.000216,  46.831
   245.2,0.049721,0.031207,0.397588,0.000216,  46.828
   245.4,0.049402,0.031001,0.395943,0.000180,  46.832
   245.6,0.049089,0.030795,0.393287,0.000216,  46.834
   245.8,0.048773,0.030595,0.390380,0.000203,  46.834
   246.0,0.048457,0.030398,0.387187,0.000167,  46.839
   246.2,0.048147,0.030204,0.384605,0.000203,  46.839
   246.4,0.047837,0.030016,0.382233,0.000203,  46.837
   246.6,0.047527,0.029836,0.379971,0.000167,  46.840
   246.8,0.047218,0.029673,0.377533,0.000203,  46.841
   247.0,0.046914,0.029526,0.375091,0.000203,  46.839
   247.2,0.046608,0.029386,0.372592,0.000167,  46.840
   247.4,0.046303,0.029262,0.370089,0.000203,  46.843
   247.6,0.046006,0.029087,0.367589,0.000203,  46.844
   247.8,0.045700,0.028901,0.365033,0.000167,  46.843
   248.0,0.045397,0.028699,0.362788,0.000203,  46.844
   248.2,0.045103,0.028515,0.360691,0.000203,  46.847
   248.4,0.044810,0.028333,0.358719,0.000154,  46.846
   248.6,0.044514,0.028144,0.356407,0.000190,  46.846
   248.8,0.044224,0.027958,0.354000,0.000190,  46.848
   249.0,0.043929,0.027779,0.351466,0.000141,  46.847
   249.2,0.043634,0.027600,0.349064,0.000176,  46.849
   249.4,0.043382,0.027417,0.346665,0.000190,  46.849
   249.6,0.043150,0.027234,0.344218,0.000154,  46.848
   249.8,0.042948,0.027049,0.341834,0.000190,  46.849
   250.0,0.042766,0.026872,0.339491,0.000190,  46.849
   250.2,0.042494,0.026696,0.337117,0.000154,  46.853
   250.4,0.042206,0.026524,0.334815,0.000190,  46.849
   250.6,0.041907,0.026348,0.332563,0.000190,  46.849
   250.8,0.041630,0.026181,0.330307,0.000154,  46.853
   251.0,0.041354,0.026008,0.328115,0.000190,  46.848
   251.2,0.041080,0.025837,0.325986,0.000190,  46.854
   251.4,0.040810,0.025663,0.323856,0.000190,  46.855
   251.6,0.040530,0.025495,0.322012,0.000190,  46.854
   251.8,0.040257,0.025325,0.320323,0.000190,  46.855
   252.0,0.039988,0.025146,0.318772,0.000190,  46.862
   252.2,0.039712,0.024974,0.317383,0.000190,  46.859
   252.4,0.039446,0.024807,0.315365,0.000190,  46.858
   252.6,0.039179,0.024634,0.313175,0.000190,  46.866
   252.8,0.038904,0.024473,0.310832,0.000154,  46.867
   253.0,0.038644,0.024310,0.308654,0.000190,  46.863
   253.2,0.038378,0.024138,0.306484,0.000176,  46.863
   253.4,0.038106,0.023971,0.304298,0.000154,  46.865
   253.6,0.037841,0.023830,0.302207,0.000176,  46.866
   253.8,0.037574,0.023703,0.300140,0.000163,  46.863
   254.0,0.037318,0.023582,0.298142,0.000141,  46.869
   254.2,0.037058,0.023483,0.296052,0.000150,  46.869
   254.4,0.036795,0.023334,0.293949,0.000137,  46.874
   254.6,0.036551,0.023171,0.291829,0.000115,  46.875
   254.8,0.036295,0.022998,0.289734,0.000137,  46.875
   255.0,0.036042,0.022839,0.287640,0.000137,  46.867
   255.2,0.035798,0.022680,0.285519,0.000102,  46.867
   255.4,0.035552,0.022523,0.283527,0.000137,  46.868
   255.6,0.035307,0.022370,0.281552,0.000124,  46.864
   255.8,0.035063,0.022215,0.279632,0.000089,  46.865
   256.0,0.034822,0.022063,0.277694,0.000137,  46.862
   256.2,0.034615,0.021908,0.275789,0.000124,  46.860
   256.4,0.034425,0.021754,0.273860,0.000089,  46.860
   256.6,0.034264,0.021599,0.271953,0.000137,  46.859
   256.8,0.034117,0.021450,0.270078,0.000124,  46.858
   257.0,0.033892,0.021301,0.268212,0.000089,  46.857
   257.2,0.033655,0.021165,0.266342,0.000137,  46.856
   257.4,0.033404,0.021016,0.264498,0.000124,  46.857
   257.6,0.033169,0.020871,0.262687,0.000089,  46.856
   257.8,0.032935,0.020726,0.260815,0.000137,  46.855
   258.0,0.032701,0.020583,0.258921,0.000124,  46.855
   258.2,0.032469,0.020435,0.256992,0.000124,  46.854
   258.4,0.032241,0.020299,0.255132,0.000124,  46.854
   258.6,0.032013,0.020156,0.253298,0.000124,  46.854
   258.8,0.031787,0.020010,0.251437,0.000124,  46.851
   259.0,0.031559,0.019873,0.249934,0.000124,  46.847
   259.2,0.031328,0.019732,0.248568,0.000124,  46.847
   259.4,0.031109,0.019590,0.247401,0.000124,  46.851
   259.6,0.030890,0.019456,0.246373,0.000089,  46.848
   259.8,0.030677,0.019319,0.244776,0.000137,  46.847
   260.0,0.030466,0.019184,0.243055,0.000124,  46.850
   260.2,0.030244,0.019047,0.241196,0.000089,  46.847
   260.4,0.030031,0.018933,0.239455,0.000124,  46.849
   260.6,0.029823,0.018824,0.237652,0.000098,  46.848
   260.8,0.029607,0.018725,0.235850,0.000063,  46.848
   261.0,0.029397,0.018642,0.234154,0.000111,  46.854
   261.2,0.029187,0.018515,0.232498,0.000098,  46.858
   261.4,0.028967,0.018383,0.230866,0.000063,  46.858
   261.6,0.028756,0.018241,0.229194,0.000111,  46.855
   261.8,0.028546,0.018108,0.227518,0.000098,  46.855
   262.0,0.028343,0.017980,0.225826,0.000063,  46.856
   262.2,0.028143,0.017853,0.224207,0.000111,  46.859
   262.4,0.027937,0.017728,0.222640,0.000098,  46.855
   262.6,0.027727,0.017595,0.221083,0.000063,  46.858
   262.8,0.027526,0.017467,0.219564,0.000111,  46.857
   263.0,0.027331,0.017344,0.218051,0.000098,  46.860
   263.2,0.027129,0.017217,0.216564,0.000063,  46.858
   263.4,0.026940,0.017100,0.215078,0.000111,  46.853
   263.6,0.026776,0.016975,0.213585,0.000098,  46.859
   263.8,0.026619,0.016855,0.212087,0.000063,  46.858
   264.0,0.026489,0.016735,0.210562,0.000111,  46.863
   264.2,0.026364,0.016615,0.209031,0.000098,  46.860
   264.4,0.026182,0.016492,0.207501,0.000063,  46.864
   264.6,0.025993,0.016379,0.205981,0.000098,  46.860
   264.8,0.025800,0.016264,0.204461,0.000085,  46.864
   265.0,0.025616,0.016143,0.202952,0.000050,  46.862
   265.2,0.025436,0.016032,0.201437,0.000085,  46.868
   265.4,0.025256,0.015921,0.199924,0.000085,  46.861
   265.6,0.025073,0.015808,0.198390,0.000085,  46.867
   265.8,0.024883,0.015701,0.196975,0.000098,  46.870
   266.0,0.024700,0.015590,0.195596,0.000085,  46.876
   266.2,0.024520,0.015481,0.194273,0.000085,  46.887
   266.4,0.024337,0.015370,0.193071,0.000098,  46.887
   266.6,0.024166,0.015260,0.191944,0.000085,  46.889
   266.8,0.023992,0.015146,0.190900,0.000085,  46.884
   267.0,0.023805,0.015036,0.189906,0.000050,  46.889
   267.2,0.023635,0.014927,0.188617,0.000085,  46.888
   267.4,0.023464,0.014814,0.187223,0.000085,  46.888
   267.6,0.023286,0.014705,0.185752,0.000037,  46.883
   267.8,0.023121,0.014612,0.184408,0.000072,  46.881
   268.0,0.022956,0.014529,0.183099,0.000072,  46.883
   268.2,0.022781,0.014452,0.181793,0.000023,  46.888
   268.4,0.022622,0.014387,0.180443,0.000059,  46.885
   268.6,0.022459,0.014292,0.179053,0.000072,  46.887
   268.8,0.022285,0.014189,0.177643,0.000037,  46.885
   269.0,0.022126,0.014078,0.176139,0.000072,  46.885
   269.2,0.021966,0.013975,0.174597,0.000072,  46.880
   269.4,0.021797,0.013874,0.172974,0.000037,  46.891
   269.6,0.021644,0.013771,0.171723,0.000072,  46.887
   269.8,0.021485,0.013670,0.170631,0.000072,  46.886
   270.0,0.021316,0.013573,0.169691,0.000037,  46.884
   270.2,0.021158,0.013474,0.168565,0.000072,  46.883
   270.4,0.021020,0.013373,0.167394,0.000072,  46.880
   270.6,0.020890,0.013272,0.166212,0.000037,  46.877
   270.8,0.020787,0.013170,0.165056,0.000059,  46.878
   271.0,0.020685,0.013074,0.163924,0.000046,  46.882
   271.2,0.020536,0.012976,0.162766,0.000023,  46.880
   271.4,0.020389,0.012879,0.161601,0.000046,  46.881
   271.6,0.020231,0.012785,0.160446,0.000046,  46.880
   271.8,0.020083,0.012692,0.159296,0.000023,  46.876
   272.0,0.019932,0.012600,0.158115,0.000046,  46.881
   272.2,0.019781,0.012503,0.156923,0.000046,  46.875
   272.4,0.019636,0.012406,0.155716,0.000046,  46.881
   272.6,0.019484,0.012316,0.154545,0.000046,  46.881
   272.8,0.019337,0.012226,0.153383,0.000046,  46.879
   273.0,0.019194,0.012132,0.152195,0.000046,  46.875
   273.2,0.019046,0.012046,0.151218,0.000059,  46.877
   273.4,0.018907,0.011958,0.150345,0.000059,  46.876
   273.6,0.018764,0.011872,0.149565,0.000059,  46.872
   273.8,0.018625,0.011786,0.148879,0.000037,  46.858
   274.0,0.018486,0.011696,0.147901,0.000072,  46.859
   274.2,0.018340,0.011608,0.146848,0.000059,  46.857
   274.4,0.018204,0.011515,0.145756,0.000037,  46.858
   274.6,0.018060,0.011442,0.144653,0.000059,  46.859
   274.8,0.017921,0.011369,0.143489,0.000046,  46.851
   275.0,0.017787,0.011306,0.142296,0.000023,  46.853
   275.2,0.017654,0.011253,0.141180,0.000059,  46.853
   275.4,0.017518,0.011174,0.140067,0.000059,  46.853
   275.6,0.017378,0.011092,0.138984,0.000037,  46.853
   275.8,0.017248,0.011004,0.137964,0.000059,  46.852
   276.0,0.017118,0.010921,0.137007,0.000046,  46.851
   276.2,0.016981,0.010836,0.136076,0.000023,  46.849
   276.4,0.016859,0.010753,0.135140,0.000046,  46.842
   276.6,0.016731,0.010675,0.134197,0.000046,  46.841
   276.8,0.016597,0.010595,0.133242,0.000023,  46.843
   277.0,0.016476,0.010513,0.132260,0.000046,  46.840
   277.2,0.016351,0.010432,0.131246,0.000046,  46.837
   277.4,0.016219,0.010354,0.130191,0.000023,  46.838
   277.6,0.016098,0.010275,0.129189,0.000046,  46.843
   277.8,0.015992,0.010197,0.128201,0.000046,  46.844
   278.0,0.015893,0.010119,0.127223,0.000023,  46.843
   278.2,0.015813,0.010046,0.126241,0.000046,  46.838
   278.4,0.015737,0.009972,0.125268,0.000046,  46.833
   278.6,0.015619,0.009894,0.124310,0.000023,  46.836
   278.8,0.015503,0.009817,0.123319,0.000046,  46.832
   279.0,0.015371,0.009741,0.122318,0.000046,  46.835
   279.2,0.015251,0.009661,0.121318,0.000046,  46.834
   279.4,0.015126,0.009588,0.120436,0.000046,  46.830
   279.6,0.015016,0.009519,0.119606,0.000046,  46.831
   279.8,0.014902,0.009449,0.118842,0.000046,  46.833
   280.0,0.014782,0.009375,0.118105,0.000046,  46.836
   280.2,0.014677,0.009300,0.117409,0.000059,  46.829
   280.4,0.014566,0.009228,0.116783,0.000046,  46.831
   280.6,0.014452,0.009158,0.116166,0.000023,  46.829
   280.8,0.014342,0.009085,0.115327,0.000046,  46.830
   281.0,0.014234,0.009013,0.114422,0.000046,  46.828
   281.2,0.014126,0.008949,0.113434,0.000023,  46.830
   281.4,0.014015,0.008889,0.112541,0.000046,  46.832
   281.6,0.013910,0.008840,0.111637,0.000033,  46.827
   281.8,0.013807,0.008788,0.110759,0.000010,  46.833
   282.0,0.013702,0.008752,0.109923,0.000046,  46.831
   282.2,0.013596,0.008691,0.109096,0.000033,  46.832
   282.4,0.013491,0.008627,0.108289,0.000010,  46.832
   282.6,0.013386,0.008558,0.107525,0.000046,  46.836
   282.8,0.013283,0.008491,0.106775,0.000033,  46.835
   283.0,0.013183,0.008421,0.106059,0.000010,  46.840
   283.2,0.013084,0.008361,0.105252,0.000046,  46.835
   283.4,0.012987,0.008297,0.104394,0.000033,  46.842
   283.6,0.012884,0.008233,0.103512,0.000010,  46.840
   283.8,0.012784,0.008172,0.102743,0.000033,  46.843
   284.0,0.012685,0.008108,0.102026,0.000020,  46.841
   284.2,0.012582,0.008044,0.101350,-0.000003,  46.850
   284.4,0.012486,0.007983,0.100596,0.000020,  46.849
   284.6,0.012403,0.007923,0.099818,0.000020,  46.849
   284.8,0.012327,0.007859,0.099040,-0.000003,  46.852
   285.0,0.012265,0.007802,0.098276,0.000020,  46.850
   285.2,0.012206,0.007744,0.097520,0.000020,  46.850
   285.4,0.012117,0.007685,0.096747,-0.000003,  46.854
   285.6,0.012023,0.007628,0.095962,-0.000003,  46.854
   285.8,0.011918,0.007572,0.095135,-0.000003,  46.854
   286.0,0.011827,0.007514,0.094307,0.000010,  46.859
   286.2,0.011732,0.007455,0.093350,-0.000003,  46.862
   286.4,0.011649,0.007396,0.092313,-0.000025,  46.865
   286.6,0.011563,0.007341,0.091191,-0.000003,  46.866
   286.8,0.011465,0.007292,0.090535,-0.000003,  46.866
   287.0,0.011376,0.007241,0.090048,-0.000003,  46.862
   287.2,0.011290,0.007188,0.089767,0.000033,  46.861
   287.4,0.011198,0.007136,0.089666,0.000010,  46.859
   287.6,0.011118,0.007084,0.089150,0.000033,  46.861
   287.8,0.011032,0.007032,0.088578,0.000020,  46.861
   288.0,0.010946,0.006973,0.087964,-0.000003,  46.862
   288.2,0.010867,0.006919,0.087437,0.000033,  46.860
   288.4,0.010786,0.006869,0.086911,0.000033,  46.859
   288.6,0.010703,0.006820,0.086410,0.000010,  46.858
   288.8,0.010620,0.006778,0.085804,0.000046,  46.853
   289.0,0.010539,0.006736,0.085162,0.000033,  46.853
   289.2,0.010459,0.006702,0.084453,0.000046,  46.848
   289.4,0.010379,0.006672,0.083660,0.000033,  46.851
   289.6,0.010298,0.006627,0.082818,0.000056,  46.849
   289.8,0.010220,0.006575,0.081911,0.000069,  46.854
   290.0,0.010143,0.006519,0.081305,0.000033,  46.853
   290.2,0.010065,0.006474,0.080810,0.000069,  46.853
   290.4,0.009987,0.006425,0.080449,0.000082,  46.853
   290.6,0.009912,0.006384,0.079797,0.000046,  46.852
   290.8,0.009837,0.006341,0.079042,0.000082,  46.852
   291.0,0.009760,0.006292,0.078198,0.000095,  46.857
   291.2,0.009685,0.006243,0.077670,0.000046,  46.857
   291.4,0.009627,0.006202,0.077233,0.000082,  46.857
   291.6,0.009563,0.006156,0.076899,0.000095,  46.861
   291.8,0.009516,0.006104,0.076439,0.000046,  46.857
   292.0,0.009475,0.006057,0.075979,0.000082,  46.859
   292.2,0.009404,0.006010,0.075501,0.000095,  46.861
   292.4,0.009335,0.005963,0.075006,0.000046,  46.865
   292.6,0.009263,0.005915,0.074482,0.000082,  46.865
   292.8,0.009187,0.005872,0.073957,0.000095,  46.865
   293.0,0.009115,0.005830,0.073440,0.000046,  46.863
   293.2,0.009043,0.005785,0.072881,0.000082,  46.865
   293.4,0.008969,0.005741,0.072340,0.000082,  46.866
   293.6,0.008899,0.005700,0.071831,0.000046,  46.869
   293.8,0.008838,0.005658,0.071298,0.000082,  46.870
   294.0,0.008772,0.005610,0.070789,0.000082,  46.871
   294.2,0.008693,0.005568,0.070358,0.000082,  46.884
   294.4,0.008627,0.005527,0.069975,0.000082,  46.885
   294.6,0.008561,0.005481,0.069651,0.000069,  46.892
   294.8,0.008488,0.005443,0.069356,0.000082,  46.893
   295.0,0.008421,0.005399,0.068891,0.000046,  46.885
   295.2,0.008357,0.005356,0.068367,0.000069,  46.890
   295.4,0.008287,0.005315,0.067791,0.000082,  46.889
   295.6,0.008223,0.005274,0.067269,0.000046,  46.889
   295.8,0.008159,0.005235,0.066742,0.000069,  46.885
   296.0,0.008095,0.005195,0.066186,0.000046,  46.883
   296.2,0.008029,0.005162,0.065701,0.000046,  46.885
   296.4,0.007967,0.005126,0.065251,0.000033,  46.882
   296.6,0.007906,0.005098,0.064831,0.000033,  46.883
   296.8,0.007845,0.005070,0.064394,0.000033,  46.881
   297.0,0.007786,0.005032,0.063957,0.000043,  46.880
   297.2,0.007725,0.004991,0.063521,0.000056,  46.883
   297.4,0.007664,0.004954,0.063045,0.000020,  46.872
   297.6,0.007605,0.004914,0.062546,0.000056,  46.880
   297.8,0.007543,0.004880,0.062012,0.000069,  46.874
   298.0,0.007481,0.004844,0.061549,0.000020,  46.874
   298.2,0.007426,0.004808,0.061075,0.000056,  46.878
   298.4,0.007358,0.004769,0.060619,0.000069,  46.876
   298.6,0.007306,0.004734,0.060163,0.000020,  46.878
   298.8,0.007255,0.004694,0.059701,0.000056,  46.873
   299.0,0.007209,0.004655,0.059235,0.000069,  46.874
   299.2,0.007173,0.004620,0.058775,0.000020,  46.871
   299.4,0.007138,0.004582,0.058332,0.000056,  46.868
   299.6,0.007081,0.004545,0.057879,0.000069,  46.853
   299.8,0.007029,0.004514,0.057449,0.000020,  46.855
   300.0,0.006971,0.004482,0.057019,0.000056,  46.857
   300.2,0.006920,0.004448,0.056612,0.000069,  46.852
   300.4,0.006860,0.004414,0.056235,0.000033,  46.851
   300.6,0.006816,0.004376,0.055846,0.000069,  46.852
   300.8,0.006763,0.004345,0.055481,0.000082,  46.854
   301.0,0.006706,0.004315,0.055081,0.000033,  46.854
   301.2,0.006657,0.004279,0.054677,0.000082,  46.858
   301.4,0.006600,0.004249,0.054244,0.000069,  46.861
   301.6,0.006549,0.004219,0.053880,0.000069,  46.859
   301.8,0.006499,0.004185,0.053551,0.000069,  46.860
   302.0,0.006442,0.004158,0.053244,0.000069,  46.859
   302.2,0.006395,0.004127,0.052955,0.000082,  46.855
   302.4,0.006342,0.004088,0.052547,0.000046,  46.866
   302.6,0.006292,0.004061,0.052111,0.000069,  46.861
   302.8,0.006239,0.004026,0.051642,0.000082,  46.863
   303.0,0.006195,0.003994,0.051005,0.000033,  46.864
   303.2,0.006144,0.003967,0.050245,0.000056,  46.874
   303.4,0.006090,0.003948,0.049375,0.000056,  46.884
   303.6,0.006046,0.003927,0.049054,0.000020,  46.882
   303.8,0.005998,0.003896,0.048951,0.000043,  46.881
   304.0,0.005941,0.003863,0.049061,0.000043,  46.885
   304.2,0.005897,0.003835,0.048863,0.000020,  46.884
   304.4,0.005852,0.003804,0.048615,0.000043,  46.886
   304.6,0.005798,0.003772,0.048317,0.000043,  46.883
   304.8,0.005754,0.003740,0.047964,0.000007,  46.884
   305.0,0.005709,0.003708,0.047566,0.000030,  46.880
   305.2,0.005658,0.003676,0.047092,0.000030,  46.883
   305.4,0.005616,0.003650,0.046717,-0.000006,  46.885
   305.6,0.005574,0.003616,0.046371,0.000030,  46.886
   305.8,0.005520,0.003590,0.046024,0.000030,  46.883
   306.0,0.005478,0.003564,0.045656,-0.000006,  46.884
   306.2,0.005441,0.003532,0.045266,0.000030,  46.881
   306.4,0.005398,0.003503,0.044871,0.000030,  46.877
   306.6,0.005375,0.003474,0.044587,-0.000006,  46.884
   306.8,0.005343,0.003446,0.044341,0.000030,  46.878
   307.0,0.005300,0.003414,0.044134,0.000030,  46.879
   307.2,0.005255,0.003388,0.043585,-0.000006,  46.878
   307.4,0.005212,0.003360,0.042895,0.000030,  46.879
   307.6,0.005173,0.003327,0.042053,0.000030,  46.876
   307.8,0.005133,0.003303,0.041727,-0.000006,  46.876
   308.0,0.005097,0.003277,0.041593,0.000030,  46.874
   308.2,0.005055,0.003250,0.041622,0.000017,  46.876
   308.4,0.005008,0.003226,0.041444,0.000017,  46.876
   308.6,0.004972,0.003202,0.041251,0.000017,  46.878
   308.8,0.004933,0.003177,0.041029,0.000017,  46.876
   309.0,0.004887,0.003158,0.040804,0.000017,  46.874
   309.2,0.004856,0.003136,0.040599,-0.000006,  46.869
   309.4,0.004819,0.003108,0.040410,0.000017,  46.869
   309.6,0.004775,0.003084,0.040221,-0.000019,  46.875
   309.8,0.004745,0.003060,0.039956,-0.000006,  46.871
   310.0,0.004710,0.003038,0.039659,-0.000019,  46.867
   310.2,0.004671,0.003013,0.039324,-0.000055,  46.856
   310.4,0.004637,0.002991,0.038848,-0.000006,  46.850
   310.6,0.004600,0.002975,0.038292,-0.000019,  46.849
   310.8,0.004563,0.002958,0.037628,-0.000055,  46.847
   311.0,0.004526,0.002942,0.037197,-0.000042,  46.847
   311.2,0.004495,0.002920,0.036848,-0.000055,  46.846
   311.4,0.004460,0.002899,0.036564,-0.000090,  46.853
   311.6,0.004426,0.002878,0.036468,-0.000042,  46.856
   311.8,0.004397,0.002853,0.036530,-0.000019,  46.853
   312.0,0.004365,0.002838,0.036737,-0.000055,  46.846
   312.2,0.004333,0.002823,0.036599,-0.000006,  46.850
   312.4,0.004304,0.002801,0.036364,-0.000019,  46.849
   312.6,0.004263,0.002783,0.036038,-0.000055,  46.851
   312.8,0.004229,0.002761,0.035766,-0.000006,  46.849
   313.0,0.004200,0.002736,0.035467,-0.000019,  46.849
   313.2,0.004170,0.002717,0.035141,-0.000055,  46.845
   313.4,0.004149,0.002696,0.034886,-0.000006,  46.847
   313.6,0.004128,0.002674,0.034625,-0.000019,  46.850
   313.8,0.004092,0.002654,0.034380,-0.000055,  46.846
   314.0,0.004060,0.002635,0.034173,-0.000006,  46.849
   314.2,0.004030,0.002613,0.033986,-0.000019,  46.845
   314.4,0.004001,0.002595,0.033822,-0.000019,  46.841
   314.6,0.003969,0.002573,0.033615,-0.000019,  46.846
   314.8,0.003944,0.002549,0.033392,0.000003,  46.839
   315.0,0.003912,0.002534,0.033160,0.000003,  46.841
   315.2,0.003878,0.002514,0.032905,0.000003,  46.843
   315.4,0.003847,0.002490,0.032603,0.000003,  46.842
   315.6,0.003818,0.002471,0.032296,0.000003,  46.840
   315.8,0.003786,0.002457,0.031744,0.000003,  46.843
   316.0,0.003757,0.002435,0.031044,0.000003,  46.835
   316.2,0.003728,0.002411,0.030207,0.000003,  46.841
   316.4,0.003699,0.002394,0.029241,0.000003,  46.839
   316.6,0.003673,0.002376,0.029121,-0.000032,  46.841
   316.8,0.003644,0.002357,0.029256,0.000003,  46.840
   317.0,0.003608,0.002339,0.029650,0.000003,  46.844
   317.2,0.003577,0.002319,0.029715,-0.000032,  46.837
   317.4,0.003550,0.002307,0.029737,0.000003,  46.836
   317.6,0.003515,0.002291,0.029723,0.000003,  46.837
   317.8,0.003490,0.002275,0.029328,-0.000032,  46.834
   318.0,0.003463,0.002261,0.028717,0.000003,  46.839
   318.2,0.003434,0.002242,0.027886,-0.000032,  46.838
   318.4,0.003414,0.002234,0.027410,-0.000019,  46.833
   318.6,0.003388,0.002216,0.027002,-0.000019,  46.839
   318.8,0.003362,0.002202,0.026653,-0.000055,  46.835
   319.0,0.003333,0.002180,0.026618,-0.000006,  46.831
   319.2,0.003306,0.002162,0.026783,-0.000019,  46.836
   319.4,0.003280,0.002150,0.027122,-0.000055,  46.834
   319.6,0.003253,0.002135,0.027150,-0.000019,  46.836
   319.8,0.003230,0.002114,0.027130,-0.000032,  46.839
   320.0,0.003202,0.002099,0.027054,-0.000081,  46.847
   320.2,0.003179,0.002085,0.026971,-0.000045,  46.844
   320.4,0.003160,0.002065,0.026852,-0.000045,  46.845
   320.6,0.003133,0.002047,0.026718,-0.000094,  46.841
   320.8,0.003126,0.002034,0.026563,-0.000058,  46.841
   321.0,0.003107,0.002013,0.026392,-0.000045,  46.839
   321.2,0.003077,0.002002,0.026185,-0.000081,  46.838
   321.4,0.003055,0.001987,0.026082,-0.000045,  46.838
   321.6,0.003026,0.001970,0.025995,-0.000045,  46.833
   321.8,0.003002,0.001954,0.025928,-0.000045,  46.838
   322.0,0.002974,0.001941,0.025809,-0.000045,  46.842
   322.2,0.002960,0.001927,0.025686,-0.000045,  46.843
   322.4,0.002941,0.001911,0.025547,-0.000045,  46.840
   322.6,0.002916,0.001905,0.025419,-0.000045,  46.844
   322.8,0.002899,0.001891,0.025275,-0.000045,  46.841
   323.0,0.002881,0.001877,0.025131,-0.000045,  46.841
   323.2,0.002856,0.001869,0.024988,-0.000081,  46.839
   323.4,0.002841,0.001855,0.024813,-0.000045,  46.837
   323.6,0.002823,0.001840,0.024623,-0.000058,  46.841
   323.8,0.002802,0.001834,0.024400,-0.000081,  46.836
   324.0,0.002784,0.001822,0.024209,-0.000045,  46.835
   324.2,0.002763,0.001806,0.024024,-0.000045,  46.842
   324.4,0.002742,0.001803,0.023839,-0.000081,  46.839
   324.6,0.002724,0.001793,0.023684,-0.000045,  46.842
   324.8,0.002705,0.001778,0.023530,-0.000045,  46.840
   325.0,0.002678,0.001771,0.023392,-0.000045,  46.841
   325.2,0.002659,0.001758,0.023264,-0.000045,  46.835
   325.4,0.002644,0.001746,0.023163,-0.000023,  46.839
   325.6,0.002616,0.001737,0.023062,-0.000010,  46.838
   325.8,0.002602,0.001722,0.022897,-0.000045,  46.840
   326.0,0.002583,0.001711,0.022713,-0.000010,  46.840
   326.2,0.002562,0.001699,0.022513,-0.000010,  46.839
   326.4,0.002547,0.001684,0.022354,-0.000045,  46.842
   326.6,0.002529,0.001669,0.022195,-0.000010,  46.841
   326.8,0.002507,0.001658,0.022047,-0.000010,  46.843
   327.0,0.002491,0.001640,0.021941,-0.000045,  46.839
   327.2,0.002475,0.001625,0.021860,-0.000010,  46.840
   327.4,0.002453,0.001620,0.021795,-0.000010,  46.836
   327.6,0.002446,0.001612,0.021657,-0.000045,  46.840
   327.8,0.002430,0.001596,0.021478,-0.000023,  46.840
   328.0,0.002408,0.001582,0.021289,-0.000010,  46.844
   328.2,0.002394,0.001573,0.021141,-0.000045,  46.841
   328.4,0.002370,0.001561,0.020989,-0.000023,  46.850
   328.6,0.002351,0.001544,0.020847,-0.000010,  46.847
   328.8,0.002333,0.001536,0.020704,-0.000045,  46.847
   329.0,0.002318,0.001524,0.020568,-0.000010,  46.848
   329.2,0.002303,0.001511,0.020431,-0.000010,  46.848
   329.4,0.002284,0.001502,0.020330,-0.000045,  46.852
   329.6,0.002266,0.001490,0.020251,-0.000010,  46.855
   329.8,0.002250,0.001476,0.020176,-0.000010,  46.856
   330.0,0.002232,0.001470,0.020128,-0.000010,  46.851
   330.2,0.002208,0.001458,0.019997,-0.000010,  46.856
   330.4,0.002192,0.001447,0.019824,-0.000010,  46.857
   330.6,0.002179,0.001438,0.019636,-0.000010,  46.860
   330.8,0.002161,0.001431,0.019371,-0.000045,  46.858
   331.0,0.002145,0.001419,0.019054,-0.000010,  46.860
   331.2,0.002132,0.001412,0.018682,-0.000010,  46.857
   331.4,0.002122,0.001404,0.018561,-0.000045,  46.862
   331.6,0.002106,0.001387,0.018538,-0.000010,  46.863
   331.8,0.002084,0.001384,0.018613,-0.000045,  46.865
   332.0,0.002068,0.001373,0.018533,-0.000045,  46.859
   332.2,0.002053,0.001364,0.018417,-0.000045,  46.863
   332.4,0.002031,0.001354,0.018260,-0.000081,  46.865
   332.6,0.002015,0.001340,0.018175,-0.000045,  46.869
   332.8,0.001999,0.001328,0.018107,-0.000045,  46.866
   333.0,0.001977,0.001317,0.018048,-0.000081,  46.871
   333.2,0.001965,0.001303,0.017923,-0.000045,  46.873
   333.4,0.001952,0.001297,0.017782,-0.000045,  46.888
   333.6,0.001941,0.001287,0.017600,-0.000081,  46.893
   333.8,0.001934,0.001278,0.017504,-0.000045,  46.890
   334.0,0.001921,0.001272,0.017441,-0.000045,  46.891
   334.2,0.001904,0.001266,0.017402,-0.000081,  46.894
   334.4,0.001900,0.001258,0.017272,-0.000045,  46.895
   334.6,0.001892,0.001251,0.017100,-0.000058,  46.894
   334.8,0.001873,0.001243,0.016915,-0.000081,  46.897
   335.0,0.001860,0.001235,0.016825,-0.000045,  46.897
   335.2,0.001853,0.001227,0.016777,-0.000058,  46.900
   335.4,0.001842,0.001219,0.016764,-0.000058,  46.903
   335.6,0.001829,0.001216,0.016680,-0.000045,  46.902
   335.8,0.001813,0.001207,0.016550,-0.000058,  46.903
   336.0,0.001800,0.001202,0.016390,-0.000058,  46.902
   336.2,0.001787,0.001196,0.016292,-0.000058,  46.899
   336.4,0.001780,0.001188,0.016192,-0.000036,  46.903
   336.6,0.001770,0.001183,0.016131,-0.000049,  46.904
   336.8,0.001750,0.001173,0.016052,-0.000036,  46.906
   337.0,0.001737,0.001158,0.015988,-0.000071,  46.911
   337.2,0.001727,0.001148,0.015946,-0.000036,  46.902
   337.4,0.001710,0.001141,0.015897,-0.000023,  46.902
   337.6,0.001697,0.001133,0.015793,-0.000036,  46.899
   337.8,0.001686,0.001122,0.015644,-0.000013,  46.898
   338.0,0.001669,0.001126,0.015464,0.000000,  46.897
   338.2,0.001663,0.001122,0.015341,-0.000036,  46.901
   338.4,0.001652,0.001113,0.015207,-0.000049,  46.898
   338.6,0.001633,0.001107,0.015073,-0.000036,  46.894
   338.8,0.001623,0.001097,0.014909,-0.000071,  46.894
   339.0,0.001615,0.001088,0.014730,-0.000049,  46.897
   339.2,0.001596,0.001083,0.014526,-0.000036,  46.890
   339.4,0.001594,0.001073,0.014371,-0.000071,  46.892
   339.6,0.001586,0.001064,0.014248,-0.000036,  46.892
   339.8,0.001567,0.001058,0.014145,-0.000023,  46.892
   340.0,0.001560,0.001050,0.014103,-0.000071,  46.894
   340.2,0.001550,0.001039,0.014090,-0.000036,  46.894
   340.4,0.001533,0.001035,0.014107,-0.000023,  46.883
   340.6,0.001526,0.001032,0.014109,-0.000071,  46.887
   340.8,0.001515,0.001023,0.014127,-0.000036,  46.887
   341.0,0.001501,0.001017,0.014119,-0.000023,  46.888
   341.2,0.001509,0.001017,0.014051,-0.000071,  46.883
   341.4,0.001501,0.001013,0.013959,-0.000036,  46.889
   341.6,0.001487,0.001006,0.013816,-0.000023,  46.889
   341.8,0.001479,0.000996,0.013744,-0.000071,  46.888
   342.0,0.001477,0.000992,0.013681,-0.000036,  46.889
   342.2,0.001469,0.000988,0.013624,-0.000023,  46.887
   342.4,0.001461,0.000983,0.013581,-0.000058,  46.887
   342.6,0.001454,0.000979,0.013528,-0.000023,  46.892
   342.8,0.001443,0.000971,0.013491,-0.000010,  46.891
   343.0,0.001433,0.000971,0.013364,-0.000045,  46.891
   343.2,0.001419,0.000965,0.013175,-0.000010,  46.894
   343.4,0.001412,0.000956,0.012947,-0.000023,  46.892
   343.6,0.001404,0.000949,0.012870,-0.000010,  46.892
   343.8,0.001396,0.000943,0.012842,-0.000010,  46.895
   344.0,0.001391,0.000935,0.012860,-0.000010,  46.893
   344.2,0.001377,0.000932,0.012933,-0.000010,  46.898
   344.4,0.001364,0.000924,0.012882,-0.000045,  46.896
   344.6,0.001356,0.000917,0.012784,-0.000023,  46.895
   344.8,0.001343,0.000911,0.012671,-0.000010,  46.893
   345.0,0.001337,0.000904,0.012574,-0.000045,  46.896
   345.2,0.001326,0.000898,0.012476,-0.000010,  46.900
   345.4,0.001309,0.000890,0.012364,-0.000010,  46.900
   345.6,0.001299,0.000889,0.012332,-0.000045,  46.901
   345.8,0.001291,0.000881,0.012335,-0.000023,  46.893
   346.0,0.001280,0.000873,0.012358,-0.000010,  46.899
   346.2,0.001275,0.000867,0.012330,-0.000045,  46.899
   346.4,0.001270,0.000859,0.012299,-0.000010,  46.899
   346.6,0.001253,0.000849,0.012237,-0.000010,  46.899
   346.8,0.001245,0.000843,0.012139,-0.000045,  46.899
   347.0,0.001240,0.000841,0.012006,-0.000023,  46.900
   347.2,0.001220,0.000832,0.011854,-0.000010,  46.906
   347.4,0.001216,0.000826,0.011782,-0.000045,  46.904
   347.6,0.001211,0.000823,0.011724,-0.000023,  46.903
   347.8,0.001200,0.000817,0.011703,-0.000010,  46.903
   348.0,0.001199,0.000816,0.011670,-0.000045,  46.905
   348.2,0.001191,0.000811,0.011638,-0.000023,  46.905
   348.4,0.001179,0.000808,0.011606,-0.000045,  46.913
   348.6,0.001178,0.000808,0.011553,-0.000045,  46.912
   348.8,0.001173,0.000800,0.011501,-0.000058,  46.911
   349.0,0.001161,0.000797,0.011440,-0.000081,  46.910
   349.2,0.001151,0.000787,0.011302,-0.000045,  46.906
   349.4,0.001152,0.000781,0.011141,-0.000058,  46.911
   349.6,0.001146,0.000774,0.010924,-0.000058,  46.915
   349.8,0.001136,0.000773,0.010867,-0.000045,  46.915
   350.0,0.001128,0.000771,0.010866,-0.000058,  46.916
   350.2,0.001123,0.000764,0.010893,-0.000058,  46.914
   350.4,0.001112,0.000761,0.010570,-0.000058,  46.916
   350.6,0.001104,0.000757,0.010070,-0.000058,  46.911
   350.8,0.001099,0.000753,0.009428,-0.000058,  46.915
   351.0,0.001091,0.000747,0.008616,-0.000081,  46.917
   351.2,0.001086,0.000742,0.008634,-0.000045,  46.916
   351.4,0.001081,0.000730,0.008888,-0.000058,  46.912
   351.6,0.001068,0.000725,0.009371,-0.000081,  46.913
   351.8,0.001057,0.000719,0.009490,-0.000045,  46.917
   352.0,0.001052,0.000715,0.009524,-0.000058,  46.916
   352.2,0.001041,0.000712,0.009505,-0.000081,  46.914
   352.4,0.001034,0.000708,0.009614,-0.000045,  46.915
   352.6,0.001028,0.000704,0.009736,-0.000058,  46.913
   352.8,0.001018,0.000698,0.009890,-0.000081,  46.915
   353.0,0.001010,0.000699,0.009663,-0.000081,  46.915
   353.2,0.001005,0.000694,0.009257,-0.000094,  46.916
   353.4,0.000997,0.000696,0.008657,-0.000116,  46.907
   353.6,0.000992,0.000687,0.008656,-0.000116,  46.912
   353.8,0.000986,0.000682,0.008875,-0.000094,  46.915
   354.0,0.000976,0.000678,0.009289,-0.000116,  46.911
   354.2,0.000968,0.000674,0.009352,-0.000081,  46.911
   354.4,0.000963,0.000670,0.009330,-0.000058,  46.910
   354.6,0.000954,0.000669,0.009250,-0.000081,  46.908
   354.8,0.000958,0.000670,0.009288,-0.000045,  46.904
   355.0,0.000955,0.000666,0.009347,-0.000058,  46.906
   355.2,0.000946,0.000661,0.009415,-0.000081,  46.904
   355.4,0.000938,0.000653,0.009399,-0.000045,  46.904
   355.6,0.000937,0.000649,0.009353,-0.000058,  46.903
   355.8,0.000931,0.000643,0.009247,-0.000081,  46.908
   356.0,0.000929,0.000636,0.009167,-0.000045,  46.905
   356.2,0.000923,0.000625,0.009071,-0.000058,  46.901
   356.4,0.000921,0.000624,0.008955,-0.000058,  46.903
   356.6,0.000913,0.000625,0.008904,-0.000045,  46.909
   356.8,0.000905,0.000617,0.008868,-0.000058,  46.908
   357.0,0.000902,0.000613,0.008878,-0.000058,  46.903
   357.2,0.000891,0.000614,0.008872,-0.000058,  46.904
   357.4,0.000886,0.000607,0.008865,-0.000058,  46.901
   357.6,0.000880,0.000607,0.008878,-0.000058,  46.902
   357.8,0.000872,0.000605,0.008886,-0.000081,  46.900
   358.0,0.000871,0.000599,0.008889,-0.000045,  46.900
   358.2,0.000866,0.000599,0.008893,-0.000058,  46.901
   358.4,0.000858,0.000593,0.008886,-0.000081,  46.903
   358.6,0.000850,0.000594,0.008845,-0.000045,  46.904
   358.8,0.000847,0.000593,0.008779,-0.000058,  46.901
   359.0,0.000842,0.000591,0.008684,-0.000045,  46.905
   359.2,0.000840,0.000594,0.008608,-0.000045,  46.904
   359.4,0.000837,0.000592,0.008527,-0.000023,  46.906
   359.6,0.000832,0.000588,0.008441,-0.000010,  46.911
   359.8,0.000830,0.000588,0.008385,-0.000045,  46.902
   360.0,0.000828,0.000584,0.008329,-0.000023,  46.908
   360.2,0.000819,0.000578,0.008280,-0.000010,  46.906
   360.4,0.000820,0.000571,0.008189,-0.000045,  46.903
   360.6,0.000817,0.000566,0.008079,-0.000023,  46.901
   360.8,0.000808,0.000563,0.007934,-0.000010,  46.908
   361.0,0.000800,0.000558,0.007664,-0.000045,  46.904
   361.2,0.000798,0.000552,0.007308,-0.000023,  46.906
   361.4,0.000792,0.000553,0.006859,-0.000010,  46.901
   361.6,0.000793,0.000551,0.006833,-0.000045,  46.903
   361.8,0.000788,0.000541,0.006966,-0.000023,  46.904
   362.0,0.000786,0.000538,0.007247,-0.000010,  46.904
   362.2,0.000783,0.000536,0.007360,-0.000045,  46.905
   362.4,0.000778,0.000531,0.007473,-0.000023,  46.905
   362.6,0.000775,0.000529,0.007577,-0.000010,  46.903
   362.8,0.000773,0.000531,0.007635,-0.000045,  46.907
   363.0,0.000767,0.000526,0.007663,-0.000010,  46.904
   363.2,0.000759,0.000524,0.007688,-0.000010,  46.903
   363.4,0.000745,0.000520,0.007678,-0.000045,  46.901
   363.6,0.000744,0.000518,0.007612,-0.000023,  46.903
   363.8,0.000741,0.000514,0.007523,-0.000023,  46.902
   364.0,0.000732,0.000515,0.007418,-0.000023,  46.904
   364.2,0.000736,0.000515,0.007292,-0.000023,  46.905
   364.4,0.000738,0.000509,0.007147,-0.000023,  46.902
   364.6,0.000729,0.000515,0.006978,-0.000010,  46.903
   364.8,0.000733,0.000515,0.006982,-0.000045,  46.905
   365.0,0.000733,0.000507,0.007031,-0.000023,  46.904
   365.2,0.000724,0.000507,0.007155,-0.000010,  46.907
   365.4,0.000725,0.000507,0.007213,-0.000045,  46.904
   365.6,0.000723,0.000503,0.007262,-0.000023,  46.907
   365.8,0.000714,0.000507,0.007311,-0.000010,  46.904
   366.0,0.000712,0.000505,0.007316,-0.000045,  46.908
   366.2,0.000710,0.000501,0.007290,-0.000023,  46.904
   366.4,0.000701,0.000499,0.007254,-0.000032,  46.904
   366.6,0.000702,0.000497,0.007160,-0.000032,  46.910
   366.8,0.000699,0.000493,0.007035,-0.000032,  46.908
   367.0,0.000693,0.000497,0.006882,-0.000055,  46.909
   367.2,0.000694,0.000495,0.006837,-0.000019,  46.912
   367.4,0.000691,0.000493,0.006837,-0.000032,  46.912
   367.6,0.000682,0.000490,0.006882,-0.000081,  46.910
   367.8,0.000683,0.000490,0.006866,-0.000045,  46.906
   368.0,0.000683,0.000484,0.006850,-0.000045,  46.909
   368.2,0.000674,0.000482,0.006814,-0.000094,  46.907
   368.4,0.000669,0.000479,0.006833,-0.000058,  46.909
   368.6,0.000666,0.000477,0.006856,-0.000045,  46.906
   368.8,0.000666,0.000473,0.006884,-0.000081,  46.905
   369.0,0.000661,0.000474,0.006878,-0.000045,  46.903
   369.2,0.000665,0.000474,0.006837,-0.000045,  46.906
   369.4,0.000656,0.000469,0.006782,-0.000045,  46.903
   369.6,0.000653,0.000472,0.006741,-0.000045,  46.907
   369.8,0.000648,0.000465,0.006686,-0.000023,  46.905
   370.0,0.000645,0.000463,0.006620,-0.000023,  46.908
   370.2,0.000640,0.000462,0.006613,-0.000010,  46.906
   370.4,0.000632,0.000455,0.006638,-0.000023,  46.905
   370.6,0.000630,0.000454,0.006692,-0.000023,  46.911
   370.8,0.000625,0.000450,0.006711,-0.000023,  46.902
   371.0,0.000622,0.000444,0.006730,-0.000023,  46.904
   371.2,0.000619,0.000447,0.006739,-0.000023,  46.910
   371.4,0.000617,0.000449,0.006743,-0.000010,  46.905
   371.6,0.000620,0.000445,0.006698,-0.000045,  46.903
   371.8,0.000622,0.000441,0.006638,-0.000023,  46.902
   372.0,0.000615,0.000441,0.006543,-0.000010,  46.903
   372.2,0.000617,0.000441,0.006513,-0.000045,  46.899
   372.4,0.000617,0.000437,0.006497,-0.000023,  46.899
   372.6,0.000615,0.000433,0.006491,-0.000010,  46.900
   372.8,0.000611,0.000431,0.006489,-0.000045,  46.897
   373.0,0.000601,0.000426,0.006508,-0.000023,  46.898
   373.2,0.000598,0.000433,0.006543,-0.000045,  46.892
   373.4,0.000598,0.000433,0.006602,-0.000045,  46.890
   373.6,0.000592,0.000428,0.006670,-0.000045,  46.888
   373.8,0.000589,0.000426,0.006749,-0.000081,  46.886
   374.0,0.000593,0.000423,0.006690,-0.000045,  46.886
   374.2,0.000593,0.000425,0.006557,-0.000045,  46.888
   374.4,0.000593,0.000422,0.006334,-0.000081,  46.884
   374.6,0.000590,0.000429,0.006264,-0.000045,  46.881
   374.8,0.000581,0.000427,0.006224,-0.000045,  46.880
   375.0,0.000588,0.000421,0.006204,-0.000081,  46.880
   375.2,0.000572,0.000420,0.006173,-0.000045,  46.884
   375.4,0.000573,0.000419,0.006143,-0.000045,  46.881
   375.6,0.000562,0.000410,0.006122,-0.000081,  46.881
   375.8,0.000559,0.000411,0.006106,-0.000045,  46.878
   376.0,0.000554,0.000409,0.006101,-0.000045,  46.878
   376.2,0.000551,0.000402,0.006079,-0.000081,  46.869
   376.4,0.000551,0.000398,0.006053,-0.000045,  46.874
   376.6,0.000546,0.000398,0.006028,-0.000045,  46.872
   376.8,0.000543,0.000394,0.005983,-0.000045,  46.869
   377.0,0.000541,0.000394,0.005957,-0.000045,  46.870
   377.2,0.000535,0.000392,0.005941,-0.000045,  46.872
   377.4,0.000533,0.000388,0.005930,-0.000045,  46.867
   377.6,0.000530,0.000385,0.005920,-0.000058,  46.866
   377.8,0.000531,0.000385,0.005919,-0.000058,  46.861
   378.0,0.000526,0.000383,0.005909,-0.000058,  46.848
   378.2,0.000523,0.000381,0.005913,-0.000081,  46.846
   378.4,0.000525,0.000381,0.005823,-0.000045,  46.845
   378.6,0.000525,0.000378,0.005709,-0.000058,  46.842
   378.8,0.000516,0.000371,0.005571,-0.000081,  46.841
   379.0,0.000510,0.000368,0.005526,-0.000045,  46.839
   379.2,0.000508,0.000369,0.005511,-0.000058,  46.834
   379.4,0.000499,0.000364,0.005520,-0.000081,  46.833
   379.6,0.000493,0.000362,0.005490,-0.000045,  46.837
   379.8,0.000491,0.000359,0.005445,-0.000058,  46.831
   380.0,0.000486,0.000361,0.005395,-0.000081,  46.831
   380.2,0.000480,0.000359,0.005137,-0.000081,  46.831
   380.4,0.000478,0.000358,0.004775,-0.000094,  46.836
   380.6,0.000469,0.000357,0.004291,-0.000116,  46.828
   380.8,0.000466,0.000353,0.004207,-0.000081,  46.835
   381.0,0.000466,0.000349,0.004256,-0.000058,  46.833
   381.2,0.000457,0.000351,0.004455,-0.000081,  46.835
   381.4,0.000466,0.000354,0.004543,-0.000045,  46.833
   381.6,0.000469,0.000353,0.004626,-0.000058,  46.829
   381.8,0.000460,0.000351,0.004729,-0.000081,  46.833
   382.0,0.000466,0.000347,0.004816,-0.000045,  46.832
   382.2,0.000466,0.000347,0.004903,-0.000058,  46.828
   382.4,0.000457,0.000338,0.004976,-0.000081,  46.827
   382.6,0.000464,0.000339,0.005039,-0.000045,  46.826
   382.8,0.000458,0.000340,0.005073,-0.000058,  46.828
   383.0,0.000449,0.000336,0.005087,-0.000081,  46.825
   383.2,0.000450,0.000340,0.005096,-0.000045,  46.833
   383.4,0.000448,0.000336,0.005101,-0.000058,  46.827
   383.6,0.000445,0.000332,0.005080,-0.000058,  46.832
   383.8,0.000436,0.000329,0.005060,-0.000045,  46.830
   384.0,0.000440,0.000322,0.005040,-0.000058,  46.836
   384.2,0.000440,0.000320,0.005000,-0.000058,  46.835
   384.4,0.000437,0.000323,0.004970,-0.000058,  46.837
   384.6,0.000438,0.000316,0.004950,-0.000058,  46.836
   384.8,0.000438,0.000319,0.004919,-0.000058,  46.835
   385.0,0.000436,0.000321,0.004899,-0.000081,  46.838
   385.2,0.000433,0.000316,0.004889,-0.000045,  46.843
   385.4,0.000433,0.000317,0.004858,-0.000058,  46.844
   385.6,0.000427,0.000318,0.004838,-0.000081,  46.847
   385.8,0.000427,0.000311,0.004496,-0.000045,  46.844
   386.0,0.000424,0.000311,0.004000,-0.000058,  46.847
   386.2,0.000418,0.000307,0.003344,-0.000081,  46.846
   386.4,0.000422,0.000307,0.003318,-0.000045,  46.850
   386.6,0.000422,0.000303,0.003518,-0.000058,  46.851
   386.8,0.000416,0.000306,0.003968,-0.000081,  46.851
   387.0,0.000420,0.000311,0.003997,-0.000045,  46.849
   387.2,0.000420,0.000309,0.003922,-0.000058,  46.853
   387.4,0.000418,0.000305,0.003754,-0.000081,  46.859
   387.6,0.000415,0.000301,0.003931,-0.000045,  46.855
   387.8,0.000412,0.000301,0.004216,-0.000058,  46.850
   388.0,0.000410,0.000297,0.004625,-0.000081,  46.856
   388.2,0.000404,0.000298,0.004718,-0.000045,  46.858
   388.4,0.000402,0.000294,0.004703,-0.000058,  46.851
   388.6,0.000397,0.000292,0.004584,-0.000081,  46.853
   388.8,0.000389,0.000283,0.004568,-0.000058,  46.854
   389.0,0.000389,0.000281,0.004570,-0.000071,  46.852
   389.2,0.000382,0.000283,0.004565,-0.000094,  46.856
   389.4,0.000391,0.000285,0.004545,-0.000071,  46.854
   389.6,0.000391,0.000283,0.004506,-0.000071,  46.859
   389.8,0.000385,0.000282,0.004477,-0.000094,  46.859
   390.0,0.000385,0.000285,0.004501,-0.000071,  46.856
   390.2,0.000391,0.000284,0.004525,-0.000071,  46.859
   390.4,0.000391,0.000285,0.004578,-0.000058,  46.855
   390.6,0.000385,0.000286,0.004607,-0.000084,  46.865
   390.8,0.000385,0.000289,0.004626,-0.000062,  46.857
   391.0,0.000385,0.000287,0.004641,-0.000062,  46.860
   391.2,0.000379,0.000285,0.004655,-0.000062,  46.863
   391.4,0.000382,0.000287,0.004655,-0.000049,  46.855
   391.6,0.000380,0.000291,0.004644,-0.000036,  46.860
   391.8,0.000380,0.000291,0.004629,-0.000023,  46.861
   392.0,0.000383,0.000286,0.004619,-0.000036,  46.859
   392.2,0.000381,0.000286,0.004578,-0.000036,  46.863
   392.4,0.000381,0.000287,0.004549,-0.000023,  46.866
   392.6,0.000381,0.000283,0.004509,-0.000071,  46.866
   392.8,0.000383,0.000283,0.004474,-0.000036,  46.871
   393.0,0.000383,0.000289,0.004445,-0.000023,  46.887
   393.2,0.000381,0.000291,0.004406,-0.000071,  46.882
   393.4,0.000383,0.000291,0.004341,-0.000036,  46.886
   393.6,0.000383,0.000288,0.004287,-0.000023,  46.882
   393.8,0.000381,0.000288,0.004307,-0.000084,  46.891
   394.0,0.000383,0.000283,0.004357,-0.000062,  46.891
   394.2,0.000383,0.000287,0.004420,-0.000049,  46.891
   394.4,0.000383,0.000288,0.004441,-0.000084,  46.891
   394.6,0.000383,0.000287,0.004430,-0.000036,  46.890
   394.8,0.000383,0.000287,0.004390,-0.000023,  46.897
   395.0,0.000387,0.000293,0.004355,-0.000071,  46.893
   395.2,0.000390,0.000293,0.004306,-0.000036,  46.891
   395.4,0.000383,0.000290,0.004248,-0.000023,  46.891
   395.6,0.000381,0.000285,0.004232,-0.000071,  46.889
   395.8,0.000381,0.000285,0.004251,-0.000036,  46.901
   396.0,0.000374,0.000291,0.004306,-0.000023,  46.896
   396.2,0.000381,0.000293,0.004325,-0.000071,  46.894
   396.4,0.000378,0.000294,0.004349,-0.000036,  46.899
   396.6,0.000372,0.000297,0.004384,-0.000023,  46.897
   396.8,0.000372,0.000295,0.004380,-0.000071,  46.899
   397.0,0.000369,0.000295,0.004345,-0.000049,  46.897
   397.2,0.000369,0.000294,0.004297,-0.000049,  46.892
   397.4,0.000363,0.000295,0.004307,-0.000084,  46.892
   397.6,0.000364,0.000289,0.004306,-0.000036,  46.895
   397.8,0.000364,0.000289,0.004339,-0.000049,  46.894
   398.0,0.000364,0.000287,0.004032,-0.000036,  46.892
   398.2,0.000365,0.000285,0.003578,-0.000036,  46.898
   398.4,0.000363,0.000284,0.002951,-0.000036,  46.897
   398.6,0.000363,0.000281,0.002190,-0.000023,  46.895
   398.8,0.000360,0.000280,0.002243,-0.000071,  46.890
   399.0,0.000360,0.000279,0.002538,-0.000036,  46.894
   399.2,0.000360,0.000278,0.003075,-0.000023,  46.892
   399.4,0.000363,0.000276,0.003248,-0.000058,  46.888
   399.6,0.000363,0.000280,0.003332,-0.000023,  46.894
   399.8,0.000356,0.000276,0.003362,-0.000010,  46.885
   400.0,0.000353,0.000272,0.003313,-0.000045,  46.889
   400.2,0.000351,0.000278,0.003170,-0.000023,  46.888
   400.4,0.000344,0.000272,0.002942,-0.000010,  46.888
   400.6,0.000351,0.000277,0.003000,-0.000023,  46.888
   400.8,0.000353,0.000281,0.003163,0.000000,  46.891
   401.0,0.000344,0.000278,0.003424,0.000013,  46.892
   401.2,0.000348,0.000278,0.003527,0.000000,  46.888
   401.4,0.000351,0.000275,0.003606,0.000000,  46.883
   401.6,0.000348,0.000268,0.003666,0.000013,  46.888
   401.8,0.000355,0.000274,0.003748,0.000000,  46.894
   402.0,0.000355,0.000272,0.003837,0.000000,  46.888
   402.2,0.000347,0.000265,0.003919,0.000013,  46.889
   402.4,0.000339,0.000268,0.003923,-0.000036,  46.887
   402.6,0.000336,0.000263,0.003889,-0.000036,  46.887
   402.8,0.000327,0.000256,0.003800,-0.000023,  46.886
   403.0,0.000325,0.000253,0.003790,-0.000071,  46.886
   403.2,0.000322,0.000251,0.003780,-0.000036,  46.889
   403.4,0.000318,0.000250,0.003774,-0.000023,  46.887
   403.6,0.000325,0.000248,0.003797,-0.000071,  46.885
   403.8,0.000325,0.000246,0.003842,-0.000036,  46.885
   404.0,0.000316,0.000243,0.003876,-0.000023,  46.881
   404.2,0.000322,0.000247,0.003835,-0.000071,  46.884
   404.4,0.000317,0.000245,0.003777,-0.000036,  46.881
   404.6,0.000317,0.000248,0.003654,-0.000036,  46.883
   404.8,0.000319,0.000255,0.003638,-0.000071,  46.878
   405.0,0.000323,0.000257,0.003663,-0.000036,  46.882
   405.2,0.000321,0.000250,0.003706,-0.000036,  46.873
   405.4,0.000318,0.000251,0.003375,-0.000023,  46.874
   405.6,0.000310,0.000251,0.002867,-0.000036,  46.873
   405.8,0.000310,0.000245,0.002178,-0.000049,  46.875
   406.0,0.000310,0.000244,0.001319,-0.000036,  46.870
   406.2,0.000310,0.000244,0.001417,-0.000071,  46.874
   406.4,0.000313,0.000242,0.001789,-0.000036,  46.872
   406.6,0.000306,0.000248,0.002433,-0.000023,  46.868
   406.8,0.000304,0.000250,0.002678,-0.000071,  46.858
   407.0,0.000306,0.000241,0.002870,-0.000036,  46.856
   407.2,0.000304,0.000241,0.002988,-0.000023,  46.858
   407.4,0.000308,0.000239,0.003111,-0.000071,  46.858
   407.6,0.000310,0.000235,0.003210,-0.000036,  46.859
   407.8,0.000305,0.000240,0.003259,-0.000023,  46.853
   408.0,0.000302,0.000239,0.003309,-0.000071,  46.857
   408.2,0.000302,0.000239,0.003339,-0.000036,  46.850
   408.4,0.000300,0.000235,0.003329,-0.000023,  46.849
   408.6,0.000294,0.000233,0.003231,-0.000071,  46.849
   408.8,0.000294,0.000233,0.003085,-0.000036,  46.847
   409.0,0.000297,0.000233,0.002870,-0.000023,  46.844
   409.2,0.000294,0.000235,0.002913,-0.000071,  46.847
   409.4,0.000294,0.000237,0.003044,-0.000049,  46.843
   409.6,0.000297,0.000235,0.003268,-0.000036,  46.846
   409.8,0.000294,0.000233,0.003327,-0.000071,  46.845
   410.0,0.000294,0.000237,0.003317,-0.000049,  46.836
   410.2,0.000291,0.000233,0.003258,-0.000036,  46.837
   410.4,0.000297,0.000230,0.002976,-0.000071,  46.837
   410.6,0.000294,0.000230,0.002532,-0.000049,  46.839
   410.8,0.000288,0.000228,0.001962,-0.000036,  46.837
   411.0,0.000283,0.000222,0.001942,-0.000071,  46.840
   411.2,0.000284,0.000218,0.002107,-0.000049,  46.837
   411.4,0.000284,0.000214,0.002492,-0.000036,  46.834
   411.6,0.000275,0.000210,0.002649,-0.000071,  46.835
   411.8,0.000278,0.000208,0.002780,-0.000049,  46.832
   412.0,0.000278,0.000208,0.002893,-0.000049,  46.834
   412.2,0.000269,0.000208,0.002970,-0.000084,  46.836
   412.4,0.000270,0.000208,0.003024,-0.000036,  46.834
   412.6,0.000270,0.000205,0.003034,-0.000049,  46.842
   412.8,0.000261,0.000196,0.002703,-0.000036,  46.836
   413.0,0.000262,0.000194,0.002180,-0.000036,  46.834
   413.2,0.000259,0.000197,0.001488,-0.000049,  46.825
   413.4,0.000250,0.000196,0.000602,-0.000036,  46.825
   413.6,0.000254,0.000190,0.000733,-0.000071,  46.827
   413.8,0.000251,0.000186,0.001154,-0.000049,  46.823
   414.0,0.000242,0.000183,0.001853,-0.000036,  46.826
   414.2,0.000246,0.000183,0.001789,-0.000071,  46.829
   414.4,0.000249,0.000180,0.001504,-0.000049,  46.830
   414.6,0.000242,0.000184,0.000986,-0.000036,  46.828
   414.8,0.000249,0.000184,0.000966,-0.000071,  46.828
   415.0,0.000249,0.000182,0.001077,-0.000049,  46.824
   415.2,0.000246,0.000184,0.001317,-0.000036,  46.819
   415.4,0.000250,0.000186,0.001449,-0.000071,  46.821
   415.6,0.000250,0.000188,0.001597,-0.000049,  46.817
   415.8,0.000246,0.000190,0.001761,-0.000036,  46.817
   416.0,0.000246,0.000193,0.002055,-0.000071,  46.818
   416.2,0.000246,0.000191,0.002418,-0.000049,  46.823
   416.4,0.000242,0.000189,0.002829,-0.000036,  46.814
   416.6,0.000246,0.000192,0.002956,-0.000071,  46.814
   416.8,0.000249,0.000193,0.002970,-0.000049,  46.817
   417.0,0.000242,0.000189,0.002858,-0.000036,  46.818
   417.2,0.000249,0.000192,0.002891,-0.000071,  46.818
   417.4,0.000249,0.000193,0.002936,-0.000036,  46.815
   417.6,0.000242,0.000187,0.002995,-0.000023,  46.817
   417.8,0.000249,0.000186,0.003024,-0.000071,  46.813
   418.0,0.000246,0.000183,0.003038,-0.000036,  46.820
   418.2,0.000240,0.000190,0.003038,-0.000023,  46.820
   418.4,0.000249,0.000191,0.002993,-0.000071,  46.818
   418.6,0.000249,0.000191,0.002936,-0.000036,  46.822
   418.8,0.000251,0.000191,0.002833,-0.000023,  46.819
   419.0,0.000242,0.000194,0.002837,-0.000071,  46.817
   419.2,0.000249,0.000191,0.002887,-0.000036,  46.820
   419.4,0.000251,0.000193,0.002980,-0.000036,  46.814
   419.6,0.000249,0.000195,0.003014,-0.000071,  46.817
   419.8,0.000255,0.000195,0.003042,-0.000036,  46.823
   420.0,0.000258,0.000199,0.003077,-0.000036,  46.823
   420.2,0.000255,0.000196,0.003067,-0.000023,  46.825
   420.4,0.000255,0.000191,0.003042,-0.000036,  46.825
   420.6,0.000255,0.000199,0.002989,-0.000036,  46.831
   420.8,0.000255,0.000197,0.002911,-0.000023,  46.824
   421.0,0.000253,0.000193,0.002911,-0.000071,  46.833
   421.2,0.000253,0.000197,0.002931,-0.000036,  46.837
   421.4,0.000249,0.000199,0.002950,-0.000023,  46.830
   421.6,0.000246,0.000197,0.002940,-0.000071,  46.830
   421.8,0.000246,0.000193,0.002915,-0.000036,  46.823
   422.0,0.000249,0.000199,0.002887,-0.000023,  46.828
   422.2,0.000253,0.000198,0.002897,-0.000071,  46.827
   422.4,0.000253,0.000196,0.002921,-0.000049,  46.823
   422.6,0.000243,0.000196,0.002946,-0.000036,  46.825
   422.8,0.000238,0.000194,0.002991,-0.000071,  46.826
   423.0,0.000238,0.000198,0.003019,-0.000049,  46.823
   423.2,0.000234,0.000193,0.003063,-0.000036,  46.827
   423.4,0.000241,0.000194,0.003092,-0.000071,  46.825
   423.6,0.000241,0.000193,0.003106,-0.000049,  46.820
   423.8,0.000237,0.000195,0.003094,-0.000036,  46.820
   424.0,0.000243,0.000195,0.003029,-0.000071,  46.821
   424.2,0.000243,0.000193,0.002957,-0.000049,  46.821
   424.4,0.000237,0.000197,0.002826,-0.000036,  46.821
   424.6,0.000241,0.000197,0.002826,-0.000071,  46.819
   424.8,0.000241,0.000199,0.002879,-0.000049,  46.821
   425.0,0.000237,0.000207,0.002967,-0.000036,  46.824
   425.2,0.000243,0.000215,0.002996,-0.000071,  46.816
   425.4,0.000243,0.000211,0.003011,-0.000049,  46.819
   425.6,0.000237,0.000208,0.003005,-0.000036,  46.819
   425.8,0.000234,0.000200,0.002970,-0.000071,  46.818
   426.0,0.000234,0.000198,0.002917,-0.000049,  46.818
   426.2,0.000228,0.000193,0.002835,-0.000049,  46.818
   426.4,0.000234,0.000191,0.002736,-0.000084,  46.819
   426.6,0.000232,0.000195,0.002614,-0.000036,  46.815
   426.8,0.000223,0.000196,0.002467,-0.000049,  46.816
   427.0,0.000227,0.000193,0.002422,-0.000036,  46.818
   427.2,0.000224,0.000195,0.002408,-0.000036,  46.816
   427.4,0.000224,0.000195,0.002441,-0.000049,  46.817
   427.6,0.000228,0.000189,0.002494,-0.000036,  46.816
   427.8,0.000237,0.000184,0.002513,-0.000071,  46.816
   428.0,0.000239,0.000184,0.002547,-0.000049,  46.820
   428.2,0.000230,0.000188,0.002586,-0.000036,  46.824
   428.4,0.000230,0.000187,0.002507,-0.000071,  46.817
   428.6,0.000233,0.000182,0.002379,-0.000036,  46.823
   428.8,0.000224,0.000188,0.002197,-0.000023,  46.822
   429.0,0.000230,0.000186,0.002197,-0.000071,  46.823
   429.2,0.000233,0.000188,0.002256,-0.000036,  46.820
   429.4,0.000224,0.000183,0.002370,-0.000058,  46.825
   429.6,0.000230,0.000183,0.002129,-0.000058,  46.827
   429.8,0.000233,0.000185,0.001742,-0.000058,  46.822
   430.0,0.000224,0.000183,0.001203,-0.000081,  46.824
   430.2,0.000230,0.000179,0.001261,-0.000058,  46.821
   430.4,0.000228,0.000174,0.001565,-0.000071,  46.820
   430.6,0.000214,0.000174,0.002101,-0.000094,  46.823
   430.8,0.000209,0.000176,0.002248,-0.000071,  46.822
   431.0,0.000209,0.000172,0.002301,-0.000071,  46.822
   431.2,0.000203,0.000176,0.002286,-0.000058,  46.823
   431.4,0.000209,0.000174,0.002384,-0.000071,  46.828
   431.6,0.000209,0.000169,0.002467,-0.000036,  46.825
   431.8,0.000208,0.000172,0.002569,-0.000023,  46.823
   432.0,0.000215,0.000175,0.002642,-0.000071,  46.825
   432.2,0.000215,0.000177,0.002681,-0.000036,  46.825
   432.4,0.000208,0.000175,0.002710,-0.000023,  46.825
   432.6,0.000215,0.000180,0.002733,-0.000071,  46.829
   432.8,0.000221,0.000180,0.002754,-0.000036,  46.830
   433.0,0.000221,0.000176,0.002754,-0.000036,  46.831
   433.2,0.000224,0.000175,0.002768,-0.000071,  46.829
   433.4,0.000224,0.000175,0.002778,-0.000036,  46.828
   433.6,0.000224,0.000173,0.002784,-0.000036,  46.829
   433.8,0.000224,0.000175,0.002627,-0.000023,  46.832
   434.0,0.000221,0.000173,0.002390,-0.000036,  46.835
   434.2,0.000218,0.000169,0.002066,-0.000036,  46.834
   434.4,0.000209,0.000166,0.001659,-0.000023,  46.836
   434.6,0.000207,0.000166,0.001667,-0.000084,  46.832
   434.8,0.000207,0.000161,0.001800,-0.000062,  46.833
   435.0,0.000198,0.000165,0.002050,-0.000049,  46.834
   435.2,0.000207,0.000165,0.002138,-0.000097,  46.831
   435.4,0.000209,0.000160,0.002191,-0.000062,  46.833
   435.6,0.000200,0.000161,0.002226,-0.000049,  46.830
   435.8,0.000204,0.000161,0.002304,-0.000097,  46.833
   436.0,0.000207,0.000158,0.002391,-0.000062,  46.832
   436.2,0.000198,0.000160,0.002489,-0.000084,  46.832
   436.4,0.000202,0.000162,0.002567,-0.000084,  46.835
   436.6,0.000195,0.000161,0.002641,-0.000071,  46.833
   436.8,0.000195,0.000161,0.002714,-0.000094,  46.833
   437.0,0.000193,0.000163,0.002729,-0.000084,  46.832
   437.2,0.000186,0.000160,0.002704,-0.000097,  46.833
   437.4,0.000193,0.000160,0.002647,-0.000120,  46.833
   437.6,0.000187,0.000162,0.002631,-0.000097,  46.832
   437.8,0.000178,0.000160,0.002625,-0.000097,  46.837
   438.0,0.000185,0.000159,0.002629,-0.000120,  46.841
   438.2,0.000182,0.000160,0.002595,-0.000097,  46.835
   438.4,0.000182,0.000157,0.002546,-0.000097,  46.831
   438.6,0.000182,0.000154,0.002482,-0.000084,  46.829
   438.8,0.000178,0.000152,0.002432,-0.000084,  46.828
   439.0,0.000182,0.000144,0.002413,-0.000049,  46.825
   439.2,0.000178,0.000138,0.002399,-0.000036,  46.830
   439.4,0.000182,0.000137,0.002373,-0.000071,  46.827
   439.6,0.000186,0.000137,0.002362,-0.000049,  46.829
   439.8,0.000188,0.000137,0.002362,-0.000036,  46.831
   440.0,0.000182,0.000143,0.002338,-0.000071,  46.830
   440.2,0.000186,0.000149,0.002279,-0.000049,  46.834
   440.4,0.000188,0.000145,0.002205,-0.000049,  46.827
   440.6,0.000182,0.000150,0.002195,-0.000084,  46.829
   440.8,0.000188,0.000152,0.002205,-0.000036,  46.833
   441.0,0.000191,0.000152,0.002230,-0.000049,  46.833
   441.2,0.000185,0.000150,0.002230,-0.000036,  46.831
   441.4,0.000191,0.000149,0.002240,-0.000036,  46.835
   441.6,0.000187,0.000147,0.002224,-0.000049,  46.831
   441.8,0.000190,0.000146,0.002220,-0.000036,  46.833
   442.0,0.000190,0.000145,0.002238,-0.000071,  46.836
   442.2,0.000190,0.000145,0.002267,-0.000049,  46.834
   442.4,0.000187,0.000150,0.002322,-0.000036,  46.835
   442.6,0.000191,0.000152,0.002322,-0.000084,  46.838
   442.8,0.000191,0.000151,0.002308,-0.000062,  46.836
   443.0,0.000185,0.000151,0.002254,-0.000049,  46.841
   443.2,0.000191,0.000153,0.002136,-0.000097,  46.836
   443.4,0.000191,0.000152,0.001973,-0.000062,  46.839
   443.6,0.000187,0.000159,0.001763,-0.000049,  46.834
   443.8,0.000194,0.000161,0.001871,-0.000084,  46.835
   444.0,0.000194,0.000162,0.002096,-0.000049,  46.839
   444.2,0.000190,0.000163,0.002459,-0.000036,  46.839
   444.4,0.000196,0.000161,0.002533,-0.000071,  46.842
   444.6,0.000196,0.000156,0.002512,-0.000049,  46.840
   444.8,0.000196,0.000161,0.002409,-0.000036,  46.836
   445.0,0.000200,0.000161,0.002374,-0.000071,  46.839
   445.2,0.000200,0.000157,0.002321,-0.000049,  46.842
   445.4,0.000194,0.000159,0.002267,-0.000036,  46.843
   445.6,0.000191,0.000163,0.002247,-0.000071,  46.843
   445.8,0.000186,0.000158,0.002243,-0.000036,  46.842
   446.0,0.000182,0.000163,0.002237,-0.000023,  46.841
   446.2,0.000186,0.000160,0.002241,-0.000071,  46.841
   446.4,0.000186,0.000154,0.002262,-0.000036,  46.848
   446.6,0.000191,0.000156,0.002272,-0.000023,  46.846
   446.8,0.000185,0.000154,0.002286,-0.000071,  46.843
   447.0,0.000191,0.000154,0.002296,-0.000036,  46.844
   447.2,0.000194,0.000154,0.002306,-0.000036,  46.840
   447.4,0.000187,0.000159,0.002306,-0.000084,  46.836
   447.6,0.000191,0.000159,0.002292,-0.000049,  46.843
   447.8,0.000188,0.000154,0.002273,-0.000075,  46.847
   448.0,0.000182,0.000159,0.002259,-0.000075,  46.838
   448.2,0.000186,0.000159,0.002238,-0.000062,  46.844
   448.4,0.000188,0.000154,0.002204,-0.000075,  46.846
   448.6,0.000182,0.000159,0.002169,-0.000075,  46.846
   448.8,0.000191,0.000159,0.002139,-0.000097,  46.843
   449.0,0.000194,0.000154,0.002099,-0.000075,  46.848
   449.2,0.000187,0.000159,0.002070,-0.000062,  46.851
   449.4,0.000191,0.000158,0.002050,-0.000097,  46.849
   449.6,0.000191,0.000153,0.002056,-0.000062,  46.846
   449.8,0.000185,0.000156,0.002066,-0.000049,  46.845
   450.0,0.000191,0.000155,0.002056,-0.000084,  46.848
   450.2,0.000191,0.000151,0.002011,-0.000049,  46.845
   450.4,0.000185,0.000155,0.001962,-0.000036,  46.843
   450.6,0.000191,0.000150,0.001952,-0.000071,  46.845
   450.8,0.000188,0.000148,0.001936,-0.000036,  46.849
   451.0,0.000182,0.000150,0.001942,-0.000023,  46.847
   451.2,0.000186,0.000150,0.001966,-0.000071,  46.851
   451.4,0.000186,0.000147,0.001985,-0.000036,  46.846
   451.6,0.000177,0.000144,0.002024,-0.000023,  46.845
   451.8,0.000183,0.000146,0.002014,-0.000071,  46.845
   452.0,0.000186,0.000144,0.001985,-0.000036,  46.845
   452.2,0.000174,0.000142,0.001936,-0.000023,  46.849
   452.4,0.000178,0.000144,0.001940,-0.000071,  46.850
   452.6,0.000178,0.000140,0.001955,-0.000036,  46.852
   452.8,0.000174,0.000140,0.001989,-0.000023,  46.849
   453.0,0.000181,0.000143,0.002008,-0.000071,  46.854
   453.2,0.000183,0.000136,0.002037,-0.000036,  46.845
   453.4,0.000177,0.000139,0.002071,-0.000023,  46.846
   453.6,0.000183,0.000142,0.002055,-0.000071,  46.846
   453.8,0.000181,0.000140,0.002035,-0.000049,  46.843
   454.0,0.000181,0.000136,0.002002,-0.000049,  46.838
   454.2,0.000174,0.000139,0.002027,-0.000084,  46.839
   454.4,0.000175,0.000137,0.002080,-0.000036,  46.835
   454.6,0.000175,0.000137,0.002149,-0.000049,  46.829
   454.8,0.000169,0.000143,0.002178,-0.000036,  46.842
   455.0,0.000170,0.000143,0.002196,-0.000036,  46.833
   455.2,0.000168,0.000133,0.002227,-0.000049,  46.828
   455.4,0.000161,0.000133,0.002221,-0.000036,  46.828
   455.6,0.000165,0.000133,0.002168,-0.000071,  46.821
   455.8,0.000162,0.000123,0.002064,-0.000049,  46.822
   456.0,0.000151,0.000120,0.001927,-0.000036,  46.818
   456.2,0.000154,0.000115,0.001893,-0.000071,  46.816
   456.4,0.000157,0.000117,0.001893,-0.000049,  46.813
   456.6,0.000151,0.000117,0.001917,-0.000036,  46.811
   456.8,0.000157,0.000117,0.001923,-0.000071,  46.812
   457.0,0.000160,0.000117,0.001923,-0.000036,  46.811
   457.2,0.000153,0.000124,0.001903,-0.000023,  46.804
   457.4,0.000157,0.000130,0.001864,-0.000049,  46.809
   457.6,0.000160,0.000132,0.001795,-0.000026,  46.809
   457.8,0.000156,0.000135,0.001695,-0.000013,  46.812
   458.0,0.000165,0.000139,0.001720,-0.000026,  46.812
   458.2,0.000168,0.000143,0.001789,-0.000026,  46.815
   458.4,0.000161,0.000143,0.001919,-0.000013,  46.810
   458.6,0.000168,0.000141,0.001898,-0.000013,  46.814
   458.8,0.000168,0.000143,0.001835,-0.000013,  46.811
   459.0,0.000161,0.000142,0.001727,0.000000,  46.816
   459.2,0.000165,0.000141,0.001693,-0.000049,  46.818
   459.4,0.000165,0.000143,0.001662,-0.000062,  46.821
   459.6,0.000159,0.000143,0.001662,-0.000049,  46.823
   459.8,0.000165,0.000138,0.001506,-0.000084,  46.819
   460.0,0.000165,0.000137,0.001254,-0.000049,  46.820
   460.2,0.000156,0.000142,0.000940,-0.000036,  46.820
   460.4,0.000162,0.000141,0.000954,-0.000071,  46.814
   460.6,0.000162,0.000136,0.001076,-0.000049,  46.822
   460.8,0.000165,0.000137,0.001332,-0.000049,  46.821
   461.0,0.000156,0.000134,0.001439,-0.000084,  46.823
   461.2,0.000160,0.000135,0.001523,-0.000036,  46.826
   461.4,0.000162,0.000133,0.001586,-0.000049,  46.823
   461.6,0.000160,0.000137,0.001330,-0.000036,  46.823
   461.8,0.000166,0.000139,0.000914,-0.000036,  46.823
   462.0,0.000169,0.000137,0.000322,-0.000049,  46.826
   462.2,0.000169,0.000145,-0.000435,-0.000036,  46.828
   462.4,0.000169,0.000142,-0.000320,-0.000071,  46.821
   462.6,0.000174,0.000141,0.000061,-0.000049,  46.829
   462.8,0.000177,0.000141,0.000691,-0.000036,  46.823
   463.0,0.000177,0.000140,0.000951,-0.000071,  46.824
   463.2,0.000179,0.000135,0.001148,-0.000049,  46.836
   463.4,0.000175,0.000147,0.001275,-0.000036,  46.827
   463.6,0.000173,0.000148,0.001393,-0.000071,  46.826
   463.8,0.000173,0.000148,0.001482,-0.000049,  46.821
   464.0,0.000173,0.000150,0.001523,-0.000036,  46.821
   464.2,0.000177,0.000147,0.001553,-0.000084,  46.823
   464.4,0.000177,0.000145,0.001555,-0.000062,  46.816
   464.6,0.000177,0.000152,0.001526,-0.000049,  46.816
   464.8,0.000174,0.000153,0.001667,-0.000097,  46.813
   465.0,0.000174,0.000155,0.001901,-0.000062,  46.818
   465.2,0.000168,0.000152,0.002193,-0.000049,  46.820
   465.4,0.000168,0.000150,0.002222,-0.000084,  46.817
   465.6,0.000168,0.000147,0.002165,-0.000049,  46.818
   465.8,0.000161,0.000143,0.001993,-0.000036,  46.816
   466.0,0.000168,0.000138,0.001963,-0.000071,  46.812
   466.2,0.000168,0.000139,0.001959,-0.000049,  46.819
   466.4,0.000161,0.000138,0.001963,-0.000036,  46.819
   466.6,0.000165,0.000138,0.001967,-0.000071,  46.819
   466.8,0.000162,0.000139,0.001977,-0.000049,  46.820
   467.0,0.000159,0.000137,0.001988,-0.000036,  46.820
   467.2,0.000165,0.000132,0.001986,-0.000071,  46.820
   467.4,0.000165,0.000129,0.001996,-0.000049,  46.820
   467.6,0.000165,0.000127,0.002006,-0.000036,  46.820
   467.8,0.000153,0.000129,0.001966,-0.000084,  46.822
   468.0,0.000154,0.000120,0.001917,-0.000062,  46.826
   468.2,0.000157,0.000121,0.001843,-0.000062,  46.826
   468.4,0.000151,0.000126,0.001819,-0.000097,  46.822
   468.6,0.000157,0.000122,0.001784,-0.000084,  46.823
   468.8,0.000157,0.000124,0.001744,-0.000084,  46.825
   469.0,0.000151,0.000130,0.001744,-0.000071,  46.821
   469.2,0.000152,0.000128,0.001738,-0.000084,  46.827
   469.4,0.000149,0.000128,0.001753,-0.000097,  46.831
   469.6,0.000147,0.000128,0.001777,-0.000084,  46.834
   469.8,0.000154,0.000124,0.001777,-0.000097,  46.830
   470.0,0.000154,0.000126,0.001757,-0.000062,  46.829
   470.2,0.000150,0.000126,0.001722,-0.000049,  46.831
   470.4,0.000153,0.000124,0.001692,-0.000097,  46.833
   470.6,0.000156,0.000124,0.001674,-0.000062,  46.832
   470.8,0.000156,0.000120,0.001645,-0.000049,  46.837
   471.0,0.000150,0.000122,0.001659,-0.000097,  46.838
   471.2,0.000150,0.000124,0.001684,-0.000062,  46.840
   471.4,0.000153,0.000124,0.001722,-0.000049,  46.839
   471.6,0.000156,0.000128,0.001835,-0.000097,  46.850
   471.8,0.000156,0.000124,0.001986,-0.000062,  46.847
   472.0,0.000156,0.000122,0.002170,-0.000049,  46.843
   472.2,0.000156,0.000122,0.002209,-0.000097,  46.846
   472.4,0.000153,0.000118,0.002174,-0.000062,  46.842
   472.6,0.000150,0.000113,0.002087,-0.000062,  46.846
   472.8,0.000145,0.000118,0.002052,-0.000097,  46.842
   473.0,0.000149,0.000113,0.001989,-0.000075,  46.845
   473.2,0.000140,0.000111,0.001931,-0.000075,  46.842
   473.4,0.000141,0.000115,0.001901,-0.000097,  46.844
   473.6,0.000145,0.000115,0.001882,-0.000075,  46.838
   473.8,0.000147,0.000113,0.001862,-0.000062,  46.843
   474.0,0.000147,0.000116,0.001842,-0.000097,  46.844
   474.2,0.000150,0.000115,0.001817,-0.000062,  46.840
   474.4,0.000155,0.000119,0.001783,-0.000049,  46.844
   474.6,0.000154,0.000125,0.001797,-0.000097,  46.838
   474.8,0.000159,0.000127,0.001826,-0.000062,  46.840
   475.0,0.000162,0.000130,0.001875,-0.000062,  46.839
   475.2,0.000158,0.000126,0.001855,-0.000084,  46.842
   475.4,0.000156,0.000126,0.001816,-0.000049,  46.837
   475.6,0.000156,0.000127,0.001758,-0.000049,  46.837
   475.8,0.000149,0.000128,0.001748,-0.000036,  46.831
   476.0,0.000149,0.000126,0.001742,-0.000049,  46.830
   476.2,0.000143,0.000124,0.001767,-0.000062,  46.841
   476.4,0.000143,0.000126,0.001801,-0.000049,  46.839
   476.6,0.000143,0.000119,0.001781,-0.000097,  46.838
   476.8,0.000143,0.000121,0.001763,-0.000062,  46.834
   477.0,0.000143,0.000121,0.001728,-0.000062,  46.832
   477.2,0.000147,0.000116,0.001704,-0.000062,  46.838
   477.4,0.000144,0.000115,0.001659,-0.000039,  46.830
   477.6,0.000138,0.000112,0.001626,-0.000039,  46.834
   477.8,0.000139,0.000115,0.001601,-0.000026,  46.838
   478.0,0.000136,0.000112,0.001557,-0.000039,  46.838
   478.2,0.000134,0.000107,0.001518,-0.000026,  46.836
   478.4,0.000135,0.000105,0.001445,-0.000026,  46.838
   478.6,0.000135,0.000101,0.001341,-0.000026,  46.838
   478.8,0.000137,0.000104,0.001225,-0.000013,  46.842
   479.0,0.000135,0.000103,0.001190,-0.000026,  46.846
   479.2,0.000135,0.000101,0.001210,-0.000026,  46.845
   479.4,0.000128,0.000100,0.001249,-0.000013,  46.847
   479.6,0.000126,0.000102,0.001268,-0.000026,  46.844
   479.8,0.000126,0.000100,0.001307,-0.000026,  46.846
   480.0,0.000119,0.000099,0.001356,-0.000013,  46.851
   480.2,0.000126,0.000098,0.001403,-0.000026,  46.851
   480.4,0.000126,0.000096,0.001456,-0.000026,  46.845
   480.6,0.000119,0.000096,0.001529,-0.000013,  46.845
   480.8,0.000123,0.000096,0.001572,-0.000026,  46.845
   481.0,0.000120,0.000087,0.001591,-0.000026,  46.846
   481.2,0.000118,0.000086,0.001606,-0.000013,  46.845
   481.4,0.000111,0.000084,0.001600,-0.000026,  46.843
   481.6,0.000118,0.000077,0.001569,-0.000026,  46.838
   481.8,0.000115,0.000080,0.001541,-0.000026,  46.837
   482.0,0.000106,0.000080,0.001531,-0.000013,  46.839
   482.2,0.000113,0.000077,0.001525,-0.000026,  46.841
   482.4,0.000115,0.000081,0.001535,-0.000026,  46.839
   482.6,0.000106,0.000081,0.001525,-0.000013,  46.837
   482.8,0.000113,0.000078,0.001525,-0.000026,  46.837
   483.0,0.000115,0.000085,0.001505,-0.000026,  46.838
   483.2,0.000109,0.000088,0.001490,-0.000013,  46.840
   483.4,0.000118,0.000087,0.001490,-0.000026,  46.841
   483.6,0.000118,0.000093,0.001490,-0.000026,  46.840
   483.8,0.000111,0.000094,0.001490,-0.000013,  46.841
   484.0,0.000118,0.000092,0.001348,-0.000062,  46.841
   484.2,0.000120,0.000099,0.001148,-0.000062,  46.838
   484.4,0.000114,0.000098,0.000860,-0.000049,  46.839
   484.6,0.000120,0.000102,0.000860,-0.000097,  46.844
   484.8,0.000123,0.000096,0.000953,-0.000062,  46.847
   485.0,0.000119,0.000100,0.001148,-0.000049,  46.846
   485.2,0.000123,0.000098,0.001143,-0.000097,  46.846
   485.4,0.000126,0.000095,0.001074,-0.000062,  46.847
   485.6,0.000124,0.000099,0.000956,-0.000049,  46.846
   485.8,0.000134,0.000101,0.000913,-0.000097,  46.851
   486.0,0.000136,0.000097,0.000880,-0.000062,  46.852
   486.2,0.000134,0.000096,0.000848,-0.000049,  46.853
   486.4,0.000137,0.000100,0.000879,-0.000097,  46.852
   486.6,0.000140,0.000100,0.000933,-0.000062,  46.852
   486.8,0.000140,0.000099,0.001011,-0.000049,  46.855
   487.0,0.000140,0.000103,0.001082,-0.000097,  46.849
   487.2,0.000140,0.000104,0.001170,-0.000062,  46.853
   487.4,0.000131,0.000105,0.001272,-0.000049,  46.850
   487.6,0.000137,0.000107,0.001325,-0.000097,  46.855
   487.8,0.000135,0.000108,0.001354,-0.000062,  46.854
   488.0,0.000128,0.000110,0.001374,-0.000049,  46.854
   488.2,0.000128,0.000108,0.001374,-0.000097,  46.852
   488.4,0.000135,0.000104,0.001339,-0.000062,  46.855
   488.6,0.000135,0.000107,0.001306,-0.000062,  46.858
   488.8,0.000131,0.000107,0.001345,-0.000084,  46.853
   489.0,0.000128,0.000105,0.001398,-0.000062,  46.856
   489.2,0.000128,0.000098,0.001492,-0.000062,  46.854
   489.4,0.000124,0.000101,0.001477,-0.000062,  46.853
   489.6,0.000128,0.000101,0.001423,-0.000062,  46.855
   489.8,0.000128,0.000100,0.001347,-0.000075,  46.855
   490.0,0.000122,0.000101,0.001220,-0.000075,  46.850
   490.2,0.000123,0.000096,0.001196,-0.000110,  46.853
   490.4,0.000123,0.000096,0.001182,-0.000088,  46.853
   490.6,0.000126,0.000096,0.001186,-0.000088,  46.856
   490.8,0.000129,0.000093,0.001190,-0.000123,  46.854
   491.0,0.000129,0.000100,0.001200,-0.000088,  46.859
   491.2,0.000132,0.000101,0.001230,-0.000088,  46.861
   491.4,0.000132,0.000100,0.001235,-0.000110,  46.859
   491.6,0.000135,0.000100,0.001220,-0.000075,  46.861
   491.8,0.000128,0.000098,0.001190,-0.000075,  46.857
   492.0,0.000131,0.000102,0.001156,-0.000062,  46.859
   492.2,0.000134,0.000103,0.001123,-0.000039,  46.860
   492.4,0.000124,0.000105,0.001059,-0.000026,  46.859
   492.6,0.000131,0.000107,0.001049,-0.000062,  46.855
   492.8,0.000131,0.000111,0.001080,-0.000062,  46.855
   493.0,0.000128,0.000102,0.001108,-0.000049,  46.859
   493.2,0.000132,0.000102,0.001088,-0.000097,  46.869
   493.4,0.000129,0.000102,0.001039,-0.000062,  46.865
   493.6,0.000120,0.000098,0.000970,-0.000049,  46.869
   493.8,0.000118,0.000100,0.000983,-0.000097,  46.866
   494.0,0.000115,0.000102,0.001042,-0.000062,  46.866
   494.2,0.000111,0.000100,0.001120,-0.000049,  46.864
   494.4,0.000118,0.000110,0.001183,-0.000097,  46.863
   494.6,0.000120,0.000111,0.001246,-0.000062,  46.859
   494.8,0.000117,0.000105,0.001325,-0.000049,  46.867
   495.0,0.000123,0.000104,0.001305,-0.000097,  46.864
   495.2,0.000127,0.000104,0.001242,-0.000062,  46.861
   495.4,0.000127,0.000106,0.001140,-0.000062,  46.863
   495.6,0.000129,0.000105,0.001158,-0.000084,  46.861
   495.8,0.000129,0.000106,0.001222,-0.000049,  46.856
   496.0,0.000129,0.000109,0.001334,-0.000036,  46.855
   496.2,0.000135,0.000111,0.001352,-0.000023,  46.856
   496.4,0.000135,0.000108,0.001372,-0.000036,  46.852
   496.6,0.000135,0.000108,0.001362,-0.000049,  46.851
   496.8,0.000137,0.000109,0.001334,-0.000036,  46.857
   497.0,0.000141,0.000107,0.001301,-0.000071,  46.858
   497.2,0.000141,0.000109,0.001237,-0.000049,  46.852
   497.4,0.000135,0.000110,0.001150,-0.000036,  46.849
   497.6,0.000138,0.000113,0.001120,-0.000036,  46.846
   497.8,0.000136,0.000107,0.001115,-0.000013,  46.848
   498.0,0.000122,0.000107,0.001120,0.000000,  46.846
   498.2,0.000114,0.000106,0.001138,-0.000036,  46.847
   498.4,0.000114,0.000103,0.001183,-0.000049,  46.843
   498.6,0.000114,0.000103,0.001232,-0.000036,  46.845
   498.8,0.000116,0.000107,0.001246,-0.000084,  46.838
   499.0,0.000119,0.000107,0.001246,-0.000062,  46.836
   499.2,0.000122,0.000109,0.001242,-0.000049,  46.835
   499.4,0.000122,0.000106,0.001213,-0.000097,  46.835
   499.6,0.000129,0.000103,0.001164,-0.000062,  46.833
   499.8,0.000126,0.000099,0.001101,-0.000049,  46.830
   500.0,0.000131,0.000105,0.001125,-0.000097,  46.836
   500.2,0.000136,0.000107,0.001189,-0.000062,  46.833
   500.4,0.000130,0.000108,0.001270,-0.000049,  46.829
   500.6,0.000134,0.000111,0.001280,-0.000097,  46.832
   500.8,0.000136,0.000113,0.001262,-0.000062,  46.832
   501.0,0.000136,0.000116,0.001199,-0.000049,  46.828
   501.2,0.000143,0.000112,0.001227,-0.000097,  46.827
   501.4,0.000143,0.000111,0.001286,-0.000062,  46.826
   501.6,0.000139,0.000120,0.001364,-0.000049,  46.827
   501.8,0.000145,0.000122,0.001403,-0.000084,  46.835
   502.0,0.000145,0.000120,0.001417,-0.000049,  46.830
   502.2,0.000141,0.000123,0.001433,-0.000036,  46.829
   502.4,0.000144,0.000129,0.001398,-0.000071,  46.828
   502.6,0.000153,0.000132,0.001341,-0.000049,  46.826
   502.8,0.000156,0.000130,0.001249,-0.000049,  46.825
   503.0,0.000158,0.000135,0.001268,-0.000049,  46.822
   503.2,0.000153,0.000132,0.001327,-0.000049,  46.819
   503.4,0.000150,0.000132,0.001408,-0.000026,  46.822
   503.6,0.000150,0.000131,0.001183,-0.000013,  46.818
   503.8,0.000148,0.000126,0.000825,-0.000013,  46.818
   504.0,0.000148,0.000120,0.000322,-0.000013,  46.821
   504.2,0.000150,0.000123,-0.000332,0.000000,  46.811
   504.4,0.000156,0.000123,-0.000288,-0.000036,  46.809
   504.6,0.000156,0.000114,-0.000067,-0.000049,  46.811
   504.8,0.000157,0.000116,0.000334,-0.000036,  46.809
   505.0,0.000153,0.000115,0.000524,-0.000071,  46.809
   505.2,0.000150,0.000113,0.000685,-0.000049,  46.815
   505.4,0.000141,0.000110,0.000817,-0.000036,  46.817
   505.6,0.000138,0.000105,0.000914,-0.000071,  46.813
   505.8,0.000138,0.000110,0.000982,-0.000049,  46.808
   506.0,0.000132,0.000103,0.001010,-0.000036,  46.806
   506.2,0.000129,0.000111,0.001045,-0.000071,  46.810
   506.4,0.000127,0.000109,0.001055,-0.000049,  46.812
   506.6,0.000127,0.000107,0.001061,-0.000036,  46.812
   506.8,0.000122,0.000106,0.001038,-0.000084,  46.814
   507.0,0.000122,0.000101,0.000970,-0.000062,  46.809
   507.2,0.000122,0.000099,0.000869,-0.000049,  46.810
   507.4,0.000124,0.000103,0.000781,-0.000097,  46.813
   507.6,0.000124,0.000101,0.000658,-0.000062,  46.813
   507.8,0.000124,0.000101,0.000508,-0.000049,  46.815
   508.0,0.000122,0.000103,0.000513,-0.000097,  46.818
   508.2,0.000122,0.000105,0.000586,-0.000062,  46.824
   508.4,0.000118,0.000106,0.000718,-0.000049,  46.820
   508.6,0.000120,0.000105,0.000766,-0.000097,  46.826
   508.8,0.000120,0.000110,0.000795,-0.000062,  46.825
   509.0,0.000117,0.000110,0.000835,-0.000049,  46.830
   509.2,0.000123,0.000105,0.000898,-0.000084,  46.830
   509.4,0.000123,0.000102,0.000972,-0.000049,  46.825
   509.6,0.000123,0.000103,0.001051,-0.000049,  46.825
   509.8,0.000119,0.000105,0.001061,-0.000071,  46.828
   510.0,0.000123,0.000101,0.001036,-0.000036,  46.829
   510.2,0.000123,0.000103,0.000973,-0.000049,  46.833
   510.4,0.000119,0.000104,0.000987,-0.000036,  46.837
   510.6,0.000123,0.000101,0.001012,-0.000036,  46.833
   510.8,0.000123,0.000105,0.001055,-0.000049,  46.836
   511.0,0.000122,0.000107,0.001118,-0.000036,  46.831
   511.2,0.000128,0.000103,0.001175,-0.000071,  46.836
   511.4,0.000128,0.000105,0.001239,-0.000049,  46.836
   511.6,0.000128,0.000102,0.001312,-0.000036,  46.832
   511.8,0.000129,0.000098,0.001321,-0.000071,  46.834
   512.0,0.000127,0.000098,0.001322,-0.000049,  46.838
   512.2,0.000127,0.000099,0.001289,-0.000036,  46.834
   512.4,0.000128,0.000099,0.001259,-0.000084,  46.839
   512.6,0.000128,0.000099,0.001224,-0.000062,  46.842
   512.8,0.000122,0.000102,0.001186,-0.000049,  46.843
   513.0,0.000128,0.000100,0.001210,-0.000097,  46.840
   513.2,0.000133,0.000100,0.001253,-0.000062,  46.845
   513.4,0.000129,0.000100,0.001316,-0.000049,  46.847
   513.6,0.000136,0.000105,0.001263,-0.000097,  46.847
   513.8,0.000138,0.000102,0.001141,-0.000062,  46.852
   514.0,0.000137,0.000103,0.000976,-0.000049,  46.854
   514.2,0.000141,0.000105,0.000956,-0.000084,  46.852
   514.4,0.000141,0.000105,0.000984,-0.000049,  46.853
   514.6,0.000132,0.000109,0.001068,-0.000036,  46.856
   514.8,0.000127,0.000108,0.001117,-0.000084,  46.857
   515.0,0.000125,0.000103,0.001165,-0.000062,  46.858
   515.2,0.000118,0.000101,0.001214,-0.000049,  46.857
   515.4,0.000122,0.000089,0.001239,-0.000097,  46.862
   515.6,0.000125,0.000087,0.001223,-0.000062,  46.865
   515.8,0.000118,0.000085,0.001194,-0.000049,  46.866
   516.0,0.000121,0.000086,0.001155,-0.000097,  46.864
   516.2,0.000113,0.000079,0.001076,-0.000062,  46.867
   516.4,0.000110,0.000082,0.000984,-0.000062,  46.865
   516.6,0.000103,0.000083,0.000798,-0.000075,  46.870
   516.8,0.000110,0.000079,0.000532,-0.000052,  46.870
   517.0,0.000112,0.000077,0.000224,-0.000052,  46.871
   517.2,0.000102,0.000081,0.000204,-0.000052,  46.878
   517.4,0.000099,0.000081,0.000281,-0.000052,  46.880
   517.6,0.000093,0.000076,0.000476,-0.000052,  46.876
   517.8,0.000093,0.000081,0.000535,-0.000052,  46.877
   518.0,0.000090,0.000079,0.000588,-0.000039,  46.883
   518.2,0.000088,0.000073,0.000623,-0.000075,  46.884
   518.4,0.000088,0.000074,0.000657,-0.000075,  46.884
   518.6,0.000094,0.000074,0.000653,-0.000097,  46.884
   518.8,0.000092,0.000073,0.000604,-0.000075,  46.887
   519.0,0.000085,0.000082,0.000531,-0.000075,  46.889
   519.2,0.000092,0.000081,0.000555,-0.000097,  46.889
   519.4,0.000088,0.000076,0.000598,-0.000075,  46.889
   519.6,0.000088,0.000071,0.000676,-0.000062,  46.893
   519.8,0.000085,0.000067,0.000724,-0.000097,  46.887
   520.0,0.000081,0.000071,0.000763,-0.000062,  46.894
   520.2,0.000085,0.000065,0.000782,-0.000062,  46.890
   520.4,0.000083,0.000066,0.000829,-0.000110,  46.889
   520.6,0.000079,0.000064,0.000886,-0.000101,  46.890
   520.8,0.000083,0.000064,0.000949,-0.000101,  46.888
   521.0,0.000083,0.000061,0.000972,-0.000123,  46.888
   521.2,0.000083,0.000058,0.000977,-0.000088,  46.882
   521.4,0.000080,0.000058,0.000962,-0.000088,  46.880
   521.6,0.000081,0.000059,0.000928,-0.000123,  46.878
   521.8,0.000081,0.000056,0.000863,-0.000088,  46.876
   522.0,0.000075,0.000059,0.000791,-0.000088,  46.876
   522.2,0.000079,0.000058,0.000791,-0.000110,  46.881
   522.4,0.000079,0.000053,0.000816,-0.000075,  46.874
   522.6,0.000072,0.000055,0.000855,-0.000075,  46.875
   522.8,0.000079,0.000055,0.000834,-0.000075,  46.876
   523.0,0.000076,0.000048,0.000810,-0.000065,  46.876
   523.2,0.000067,0.000049,0.000771,-0.000065,  46.869
   523.4,0.000068,0.000044,0.000712,-0.000052,  46.874
   523.6,0.000063,0.000039,0.000649,-0.000065,  46.878
   523.8,0.000063,0.000042,0.000588,-0.000065,  46.872
   524.0,0.000063,0.000045,0.000598,-0.000088,  46.874
   524.2,0.000069,0.000050,0.000637,-0.000088,  46.871
   524.4,0.000072,0.000048,0.000694,-0.000088,  46.869
   524.6,0.000072,0.000044,0.000723,-0.000123,  46.868
   524.8,0.000072,0.000049,0.000751,-0.000088,  46.871
   525.0,0.000074,0.000048,0.000776,-0.000088,  46.865
   525.2,0.000074,0.000049,0.000794,-0.000088,  46.864
   525.4,0.000074,0.000044,0.000809,-0.000088,  46.864
   525.6,0.000080,0.000048,0.000813,-0.000088,  46.860
   525.8,0.000080,0.000055,0.000833,-0.000088,  46.865
   526.0,0.000080,0.000055,0.000809,-0.000088,  46.861
   526.2,0.000082,0.000054,0.000770,-0.000065,  46.861
   526.4,0.000082,0.000055,0.000707,-0.000065,  46.864
   526.6,0.000080,0.000057,0.000740,-0.000052,  46.861
   526.8,0.000077,0.000054,0.000827,-0.000065,  46.865
   527.0,0.000077,0.000057,0.000923,-0.000065,  46.867
   527.2,0.000077,0.000059,0.000903,-0.000052,  46.863
   527.4,0.000077,0.000060,0.000850,-0.000065,  46.863
   527.6,0.000077,0.000064,0.000748,-0.000065,  46.862
   527.8,0.000080,0.000064,0.000669,-0.000052,  46.864
   528.0,0.000082,0.000061,0.000602,-0.000052,  46.862
   528.2,0.000082,0.000056,0.000540,-0.000052,  46.862
   528.4,0.000080,0.000058,0.000540,-0.000039,  46.863
   528.6,0.000080,0.000055,0.000565,-0.000039,  46.868
   528.8,0.000082,0.000057,0.000623,-0.000039,  46.860
   529.0,0.000089,0.000060,0.000623,-0.000026,  46.856
   529.2,0.000089,0.000057,0.000605,-0.000039,  46.861
   529.4,0.000085,0.000058,0.000556,-0.000039,  46.857
   529.6,0.000089,0.000062,0.000555,-0.000026,  46.858
   529.8,0.000089,0.000060,0.000589,-0.000039,  46.861
   530.0,0.000085,0.000060,0.000628,-0.000039,  46.864
   530.2,0.000091,0.000062,0.000661,-0.000039,  46.862
   530.4,0.000088,0.000060,0.000714,-0.000052,  46.862
   530.6,0.000084,0.000062,0.000767,-0.000039,  46.872
   530.8,0.000084,0.000070,0.000752,-0.000075,  46.864
   531.0,0.000093,0.000074,0.000714,-0.000062,  46.864
   531.2,0.000095,0.000069,0.000636,-0.000062,  46.863
   531.4,0.000098,0.000077,0.000618,-0.000062,  46.866
   531.6,0.000098,0.000078,0.000613,-0.000075,  46.866
   531.8,0.000101,0.000082,0.000619,-0.000052,  46.865
   532.0,0.000101,0.000082,0.000522,-0.000052,  46.865
   532.2,0.000098,0.000084,0.000365,-0.000039,  46.865
   532.4,0.000101,0.000086,0.000169,-0.000039,  46.863
   532.6,0.000101,0.000086,-0.000074,-0.000026,  46.872
   532.8,0.000101,0.000086,-0.000031,-0.000062,  46.866
   533.0,0.000103,0.000084,0.000110,-0.000062,  46.863
   533.2,0.000106,0.000086,0.000335,-0.000049,  46.863
   533.4,0.000112,0.000082,0.000437,-0.000084,  46.867
   533.6,0.000112,0.000084,0.000526,-0.000049,  46.864
   533.8,0.000106,0.000084,0.000591,-0.000036,  46.865
   534.0,0.000101,0.000081,0.000658,-0.000071,  46.869
   534.2,0.000101,0.000081,0.000717,-0.000036,  46.864
   534.4,0.000103,0.000081,0.000776,-0.000058,  46.869
   534.6,0.000109,0.000087,0.000888,-0.000071,  46.859
   534.8,0.000111,0.000087,0.001024,-0.000071,  46.863
   535.0,0.000114,0.000088,0.001181,-0.000094,  46.866
   535.2,0.000111,0.000088,0.001229,-0.000071,  46.861
   535.4,0.000111,0.000086,0.001245,-0.000084,  46.859
   535.6,0.000111,0.000085,0.001228,-0.000107,  46.863
   535.8,0.000109,0.000089,0.001179,-0.000071,  46.865
   536.0,0.000109,0.000089,0.001080,-0.000084,  46.864
   536.2,0.000109,0.000085,0.000962,-0.000107,  46.859
   536.4,0.000106,0.000086,0.000942,-0.000071,  46.865
   536.6,0.000106,0.000083,0.000941,-0.000084,  46.866
   536.8,0.000099,0.000081,0.000969,-0.000107,  46.866
   537.0,0.000103,0.000082,0.000959,-0.000071,  46.867
   537.2,0.000101,0.000080,0.000925,-0.000084,  46.863
   537.4,0.000094,0.000077,0.000892,-0.000107,  46.864
   537.6,0.000094,0.000077,0.000853,-0.000071,  46.861
   537.8,0.000098,0.000077,0.000794,-0.000084,  46.866
   538.0,0.000101,0.000077,0.000727,-0.000084,  46.867
   538.2,0.000098,0.000075,0.000674,-0.000084,  46.865
   538.4,0.000095,0.000077,0.000601,-0.000071,  46.865
   538.6,0.000098,0.000073,0.000517,-0.000084,  46.871
   538.8,0.000098,0.000075,0.000507,-0.000071,  46.864
   539.0,0.000098,0.000075,0.000528,-0.000071,  46.872
   539.2,0.000101,0.000073,0.000570,-0.000084,  46.870
   539.4,0.000101,0.000073,0.000634,-0.000084,  46.866
   539.6,0.000098,0.000075,0.000644,-0.000084,  46.864
   539.8,0.000098,0.000073,0.000629,-0.000075,  46.869
   540.0,0.000093,0.000075,0.000605,-0.000075,  46.864
   540.2,0.000085,0.000075,0.000599,-0.000097,  46.870
   540.4,0.000085,0.000066,0.000605,-0.000075,  46.864
   540.6,0.000079,0.000067,0.000625,-0.000075,  46.862
   540.8,0.000076,0.000065,0.000648,-0.000097,  46.866
   541.0,0.000069,0.000058,0.000677,-0.000075,  46.868
   541.2,0.000072,0.000063,0.000720,-0.000075,  46.869
   541.4,0.000069,0.000061,0.000762,-0.000075,  46.868
   541.6,0.000063,0.000058,0.000797,-0.000065,  46.860
   541.8,0.000072,0.000063,0.000837,-0.000065,  46.861
   542.0,0.000069,0.000060,0.000847,-0.000052,  46.869
   542.2,0.000069,0.000058,0.000833,-0.000052,  46.867
   542.4,0.000072,0.000060,0.000804,-0.000039,  46.868
   542.6,0.000079,0.000060,0.000784,-0.000075,  46.869
   542.8,0.000075,0.000059,0.000760,-0.000062,  46.871
   543.0,0.000077,0.000063,0.000734,-0.000049,  46.867
   543.2,0.000080,0.000063,0.000752,-0.000097,  46.868
   543.4,0.000080,0.000062,0.000781,-0.000062,  46.866
   543.6,0.000074,0.000066,0.000840,-0.000049,  46.867
   543.8,0.000074,0.000068,0.000849,-0.000097,  46.871
   544.0,0.000080,0.000062,0.000838,-0.000062,  46.870
   544.2,0.000074,0.000064,0.000814,-0.000049,  46.873
   544.4,0.000074,0.000064,0.000770,-0.000097,  46.874
   544.6,0.000077,0.000057,0.000716,-0.000062,  46.875
   544.8,0.000071,0.000059,0.000639,-0.000062,  46.869
   545.0,0.000075,0.000064,0.000633,-0.000084,  46.874
   545.2,0.000072,0.000062,0.000662,-0.000062,  46.874
   545.4,0.000072,0.000060,0.000725,-0.000062,  46.870
   545.6,0.000075,0.000065,0.000721,-0.000049,  46.871
   545.8,0.000081,0.000058,0.000696,-0.000062,  46.870
   546.0,0.000081,0.000058,0.000643,-0.000062,  46.869
   546.2,0.000077,0.000060,0.000570,-0.000062,  46.874
   546.4,0.000081,0.000058,0.000564,-0.000097,  46.871
   546.6,0.000081,0.000058,0.000564,-0.000075,  46.874
   546.8,0.000072,0.000053,0.000579,-0.000062,  46.874
   547.0,0.000073,0.000051,0.000323,-0.000097,  46.877
   547.2,0.000073,0.000055,-0.000058,-0.000062,  46.873
   547.4,0.000067,0.000058,-0.000560,-0.000049,  46.879
   547.6,0.000073,0.000058,-0.000574,-0.000097,  46.881
   547.8,0.000071,0.000062,-0.000428,-0.000062,  46.876
   548.0,0.000064,0.000060,-0.000100,-0.000062,  46.872
   548.2,0.000068,0.000058,-0.000022,-0.000097,  46.876
   548.4,0.000068,0.000057,-0.000012,-0.000075,  46.875
   548.6,0.000059,0.000053,-0.000046,-0.000075,  46.871
   548.8,0.000065,0.000046,-0.000085,-0.000097,  46.880
   549.0,0.000065,0.000044,-0.000162,-0.000075,  46.871
   549.2,0.000060,0.000042,-0.000268,-0.000075,  46.876
   549.4,0.000061,0.000047,-0.000239,-0.000097,  46.876
   549.6,0.000061,0.000043,-0.000162,-0.000075,  46.878
   549.8,0.000061,0.000043,-0.000036,-0.000075,  46.873
   550.0,0.000065,0.000043,0.000051,-0.000075,  46.874
   550.2,0.000065,0.000040,0.000139,-0.000052,  46.871
   550.4,0.000068,0.000045,0.000226,-0.000052,  46.874
   550.6,0.000065,0.000045,0.000298,-0.000088,  46.878
   550.8,0.000065,0.000040,0.000381,-0.000088,  46.876
   551.0,0.000068,0.000045,0.000444,-0.000088,  46.873
   551.2,0.000068,0.000043,0.000487,-0.000110,  46.874
   551.4,0.000070,0.000041,0.000515,-0.000075,  46.871
   551.6,0.000073,0.000043,0.000530,-0.000075,  46.875
   551.8,0.000069,0.000048,0.000530,-0.000097,  46.870
   552.0,0.000069,0.000047,0.000479,-0.000075,  46.870
   552.2,0.000072,0.000049,0.000436,-0.000075,  46.873
   552.4,0.000072,0.000049,0.000455,-0.000075,  46.868
   552.6,0.000069,0.000051,0.000499,-0.000062,  46.865
   552.8,0.000072,0.000049,0.000552,-0.000039,  46.867
   553.0,0.000072,0.000049,0.000563,-0.000039,  46.868
   553.2,0.000072,0.000047,0.000552,-0.000026,  46.864
   553.4,0.000074,0.000049,0.000534,-0.000075,  46.867
   553.6,0.000072,0.000053,0.000495,-0.000075,  46.867
   553.8,0.000072,0.000054,0.000485,-0.000097,  46.868
   554.0,0.000074,0.000055,0.000471,-0.000075,  46.864
   554.2,0.000074,0.000054,0.000467,-0.000075,  46.869
   554.4,0.000074,0.000051,0.000467,-0.000097,  46.864
   554.6,0.000077,0.000053,0.000467,-0.000075,  46.865
   554.8,0.000077,0.000047,0.000477,-0.000062,  46.868
   555.0,0.000081,0.000054,0.000520,-0.000084,  46.864
   555.2,0.000086,0.000051,0.000583,-0.000049,  46.862
   555.4,0.000082,0.000051,0.000666,-0.000036,  46.857
   555.6,0.000091,0.000058,0.000656,-0.000084,  46.858
   555.8,0.000094,0.000060,0.000613,-0.000062,  46.858
   556.0,0.000088,0.000059,0.000511,-0.000062,  46.865
   556.2,0.000091,0.000063,0.000487,-0.000097,  46.858
   556.4,0.000094,0.000065,0.000478,-0.000075,  46.859
   556.6,0.000088,0.000060,0.000474,-0.000075,  46.863
   556.8,0.000097,0.000067,0.000464,-0.000110,  46.863
   557.0,0.000097,0.000068,0.000449,-0.000088,  46.860
   557.2,0.000088,0.000065,0.000451,-0.000088,  46.864
   557.4,0.000082,0.000066,0.000461,-0.000123,  46.862
   557.6,0.000082,0.000060,0.000465,-0.000088,  46.866
   557.8,0.000076,0.000065,0.000481,-0.000088,  46.868
   558.0,0.000082,0.000064,0.000374,-0.000110,  46.866
   558.2,0.000082,0.000058,0.000202,-0.000075,  46.867
   558.4,0.000079,0.000062,-0.000017,-0.000075,  46.870
   558.6,0.000076,0.000064,-0.000032,-0.000097,  46.867
   558.8,0.000082,0.000062,0.000021,-0.000075,  46.866
   559.0,0.000082,0.000062,0.000143,-0.000075,  46.871
   559.2,0.000082,0.000064,0.000236,-0.000110,  46.868
   559.4,0.000080,0.000061,0.000338,-0.000088,  46.870
   559.6,0.000080,0.000060,0.000439,-0.000101,  46.871
   559.8,0.000082,0.000060,0.000460,-0.000088,  46.869
   560.0,0.000085,0.000055,0.000439,-0.000088,  46.870
   560.2,0.000085,0.000055,0.000372,-0.000101,  46.870
   560.4,0.000082,0.000056,0.000260,-0.000101,  46.870
   560.6,0.000080,0.000051,0.000275,-0.000123,  46.875
   560.8,0.000073,0.000049,0.000303,-0.000088,  46.878
   561.0,0.000073,0.000053,0.000372,-0.000088,  46.872
   561.2,0.000067,0.000057,0.000372,-0.000123,  46.878
   561.4,0.000058,0.000049,0.000348,-0.000088,  46.878
   561.6,0.000064,0.000060,0.000299,-0.000088,  46.877
   561.8,0.000064,0.000057,0.000283,-0.000110,  46.880
   562.0,0.000055,0.000053,0.000283,-0.000075,  46.878
   562.2,0.000059,0.000055,0.000289,-0.000075,  46.880
   562.4,0.000059,0.000055,0.000332,-0.000097,  46.877
   562.6,0.000055,0.000051,0.000405,-0.000075,  46.879
   562.8,0.000062,0.000048,0.000492,-0.000075,  46.880
   563.0,0.000062,0.000046,0.000515,-0.000110,  46.879
   563.2,0.000064,0.000041,0.000520,-0.000088,  46.874
   563.4,0.000062,0.000039,0.000509,-0.000088,  46.883
   563.6,0.000063,0.000037,0.000494,-0.000110,  46.882
   563.8,0.000065,0.000030,0.000468,-0.000075,  46.883
   564.0,0.000059,0.000031,0.000459,-0.000075,  46.883
   564.2,0.000065,0.000034,0.000439,-0.000097,  46.887
   564.4,0.000065,0.000032,0.000409,-0.000075,  46.883
   564.6,0.000062,0.000032,0.000385,-0.000075,  46.878
   564.8,0.000072,0.000040,0.000395,-0.000097,  46.879
   565.0,0.000072,0.000036,0.000403,-0.000075,  46.887
   565.2,0.000063,0.000034,0.000428,-0.000075,  46.879
   565.4,0.000052,0.000032,0.000403,-0.000097,  46.880
   565.6,0.000044,0.000030,0.000354,-0.000075,  46.882
   565.8,0.000038,0.000027,0.000297,-0.000075,  46.878
   566.0,0.000038,0.000031,0.000311,-0.000110,  46.883
   566.2,0.000038,0.000028,0.000334,-0.000062,  46.883
   566.4,0.000041,0.000030,0.000387,-0.000075,  46.883
   566.6,0.000038,0.000030,0.000138,-0.000075,  46.879
   566.8,0.000042,0.000028,-0.000249,-0.000062,  46.879
   567.0,0.000041,0.000031,-0.000775,-0.000075,  46.880
   567.2,0.000041,0.000032,-0.001441,-0.000075,  46.874
   567.4,0.000043,0.000027,-0.001383,-0.000097,  46.879
   567.6,0.000046,0.000028,-0.001124,-0.000075,  46.881
   567.8,0.000046,0.000030,-0.000662,-0.000075,  46.876
   568.0,0.000050,0.000028,-0.000467,-0.000110,  46.876
   568.2,0.000050,0.000030,-0.000307,-0.000088,  46.879
   568.4,0.000046,0.000036,-0.000180,-0.000088,  46.873
   568.6,0.000052,0.000041,-0.000101,-0.000123,  46.873
   568.8,0.000046,0.000039,-0.000083,-0.000088,  46.875
   569.0,0.000046,0.000042,-0.000081,-0.000088,  46.871
   569.2,0.000043,0.000040,-0.000334,-0.000123,  46.874
   569.4,0.000037,0.000040,-0.000739,-0.000088,  46.876
   569.6,0.000046,0.000042,-0.001288,-0.000088,  46.872
   569.8,0.000049,0.000041,-0.001230,-0.000123,  46.873
   570.0,0.000042,0.000042,-0.000967,-0.000088,  46.870
   570.2,0.000049,0.000041,-0.000480,-0.000088,  46.873
   570.4,0.000046,0.000041,-0.000344,-0.000123,  46.870
   570.6,0.000040,0.000036,-0.000271,-0.000088,  46.872
   570.8,0.000051,0.000036,-0.000271,-0.000088,  46.870
   571.0,0.000051,0.000034,-0.000180,-0.000110,  46.870
   571.2,0.000049,0.000029,-0.000078,-0.000075,  46.864
   571.4,0.000049,0.000028,0.000039,-0.000075,  46.866
   571.6,0.000052,0.000034,0.000088,-0.000097,  46.857
   571.8,0.000054,0.000030,0.000088,-0.000075,  46.868
   572.0,0.000047,0.000029,0.000075,-0.000075,  46.870
   572.2,0.000047,0.000025,0.000114,-0.000097,  46.869
   572.4,0.000050,0.000024,0.000171,-0.000075,  46.864
   572.6,0.000052,0.000027,0.000228,-0.000075,  46.869
   572.8,0.000046,0.000030,0.000238,-0.000097,  46.866
   573.0,0.000050,0.000031,0.000228,-0.000075,  46.866
   573.2,0.000050,0.000034,0.000199,-0.000075,  46.863
   573.4,0.000046,0.000032,0.000181,-0.000097,  46.869
   573.6,0.000055,0.000037,0.000142,-0.000062,  46.866
   573.8,0.000058,0.000037,0.000109,-0.000062,  46.865
   574.0,0.000051,0.000034,0.000109,-0.000062,  46.869
   574.2,0.000060,0.000034,0.000134,-0.000062,  46.862
   574.4,0.000060,0.000031,0.000168,-0.000075,  46.860
   574.6,0.000054,0.000035,0.000211,-0.000075,  46.865
   574.8,0.000058,0.000032,0.000225,-0.000097,  46.864
   575.0,0.000054,0.000028,0.000230,-0.000075,  46.860
   575.2,0.000056,0.000035,0.000255,-0.000075,  46.864
   575.4,0.000056,0.000037,0.000235,-0.000097,  46.865
   575.6,0.000053,0.000035,0.000187,-0.000075,  46.863
   575.8,0.000059,0.000039,0.000129,-0.000075,  46.859
   576.0,0.000059,0.000046,0.000119,-0.000110,  46.864
   576.2,0.000055,0.000041,0.000104,-0.000088,  46.862
   576.4,0.000062,0.000044,0.000129,-0.000088,  46.860
   576.6,0.000064,0.000047,0.000111,-0.000110,  46.861
   576.8,0.000060,0.000042,0.000062,-0.000075,  46.860
   577.0,0.000069,0.000047,0.000021,-0.000062,  46.855
   577.2,0.000069,0.000053,-0.000301,-0.000097,  46.861
   577.4,0.000066,0.000053,-0.000770,-0.000062,  46.862
   577.6,0.000075,0.000061,-0.001379,-0.000049,  46.857
   577.8,0.000072,0.000063,-0.001379,-0.000097,  46.858
   578.0,0.000068,0.000058,-0.001150,-0.000062,  46.862
   578.2,0.000077,0.000064,-0.000701,-0.000049,  46.860
   578.4,0.000080,0.000063,-0.000493,-0.000097,  46.854
   578.6,0.000080,0.000060,-0.000284,-0.000062,  46.862
   578.8,0.000080,0.000062,-0.000085,-0.000062,  46.859
   579.0,0.000071,0.000063,0.000032,-0.000062,  46.856
   579.2,0.000075,0.000066,0.000091,-0.000039,  46.860
   579.4,0.000071,0.000061,0.000091,-0.000039,  46.857
   579.6,0.000068,0.000059,0.000107,-0.000026,  46.856
   579.8,0.000072,0.000062,0.000092,-0.000039,  46.854
   580.0,0.000069,0.000057,0.000029,-0.000039,  46.851
   580.2,0.000067,0.000061,0.000048,-0.000039,  46.851
   580.4,0.000071,0.000060,0.000107,-0.000026,  46.847
   580.6,0.000068,0.000053,0.000185,-0.000039,  46.853
   580.8,0.000059,0.000053,-0.000074,-0.000039,  46.851
   581.0,0.000065,0.000046,-0.000484,-0.000026,  46.852
   581.2,0.000068,0.000049,-0.001040,-0.000039,  46.856
   581.4,0.000062,0.000049,-0.001750,-0.000039,  46.846
   581.6,0.000068,0.000042,-0.001649,-0.000026,  46.847
   581.8,0.000071,0.000049,-0.001303,-0.000039,  46.852
   582.0,0.000062,0.000051,-0.000743,-0.000039,  46.849
   582.2,0.000063,0.000044,-0.000515,-0.000062,  46.850
   582.4,0.000065,0.000047,-0.000323,-0.000075,  46.849
   582.6,0.000059,0.000043,-0.000195,-0.000075,  46.849
   582.8,0.000063,0.000036,-0.000045,-0.000097,  46.845
   583.0,0.000063,0.000038,0.000097,-0.000075,  46.845
   583.2,0.000063,0.000036,0.000192,-0.000097,  46.845
   583.4,0.000064,0.000044,0.000012,-0.000097,  46.846
   583.6,0.000064,0.000046,-0.000319,-0.000097,  46.844
   583.8,0.000067,0.000043,-0.000814,-0.000120,  46.844
   584.0,0.000064,0.000043,-0.000774,-0.000097,  46.845
   584.2,0.000064,0.000043,-0.000574,-0.000097,  46.840
   584.4,0.000064,0.000045,-0.000194,-0.000120,  46.840
   584.6,0.000061,0.000044,-0.000058,-0.000097,  46.841
   584.8,0.000061,0.000044,0.000059,-0.000097,  46.841
   585.0,0.000061,0.000044,0.000122,-0.000097,  46.841
   585.2,0.000061,0.000042,0.000009,-0.000110,  46.836
   585.4,0.000061,0.000040,-0.000216,-0.000088,  46.832
   585.6,0.000058,0.000036,-0.000547,-0.000088,  46.834
   585.8,0.000055,0.000039,-0.000533,-0.000110,  46.832
   586.0,0.000058,0.000036,-0.000412,-0.000075,  46.837
   586.2,0.000051,0.000039,-0.000151,-0.000075,  46.831
   586.4,0.000060,0.000043,-0.000072,-0.000097,  46.837
   586.6,0.000063,0.000039,-0.000048,-0.000075,  46.833
   586.8,0.000065,0.000046,-0.000048,-0.000075,  46.831
   587.0,0.000059,0.000049,0.000011,-0.000110,  46.829
   587.2,0.000063,0.000047,0.000074,-0.000062,  46.830
   587.4,0.000065,0.000041,0.000131,-0.000075,  46.835
   587.6,0.000056,0.000040,0.000155,-0.000075,  46.837
   587.8,0.000060,0.000035,0.000145,-0.000062,  46.830
   588.0,0.000060,0.000032,0.000131,-0.000075,  46.828
   588.2,0.000054,0.000038,0.000082,-0.000075,  46.829
   588.4,0.000058,0.000038,0.000066,-0.000097,  46.830
   588.6,0.000055,0.000035,0.000072,-0.000075,  46.826
   588.8,0.000056,0.000034,0.000082,-0.000075,  46.827
   589.0,0.000061,0.000034,0.000125,-0.000097,  46.828
   589.2,0.000061,0.000031,0.000188,-0.000075,  46.828
   589.4,0.000055,0.000033,0.000265,-0.000075,  46.835
   589.6,0.000057,0.000031,0.000308,-0.000097,  46.841
   589.8,0.000060,0.000027,0.000333,-0.000075,  46.834
   590.0,0.000054,0.000030,0.000343,-0.000075,  46.833
   590.2,0.000057,0.000032,0.000171,-0.000110,  46.828
   590.4,0.000060,0.000027,-0.000109,-0.000088,  46.829
   590.6,0.000054,0.000025,-0.000469,-0.000088,  46.833
   590.8,0.000057,0.000027,-0.000493,-0.000110,  46.833
   591.0,0.000060,0.000024,-0.000396,-0.000075,  46.832
   591.2,0.000047,0.000023,-0.000166,-0.000075,  46.829
   591.4,0.000047,0.000022,-0.000073,-0.000097,  46.828
   591.6,0.000047,0.000022,0.000015,-0.000075,  46.834
   591.8,0.000043,0.000020,0.000088,-0.000075,  46.829
   592.0,0.000050,0.000025,0.000151,-0.000097,  46.830
   592.2,0.000047,0.000026,0.000204,-0.000075,  46.829
   592.4,0.000043,0.000023,0.000228,-0.000075,  46.834
   592.6,0.000050,0.000028,0.000214,-0.000097,  46.835
   592.8,0.000047,0.000028,0.000165,-0.000075,  46.830
   593.0,0.000047,0.000027,0.000073,-0.000075,  46.830
   593.2,0.000041,0.000031,0.000049,-0.000097,  46.828
   593.4,0.000047,0.000031,0.000039,-0.000075,  46.834
   593.6,0.000041,0.000031,0.000029,-0.000075,  46.830
   593.8,0.000041,0.000036,0.000053,-0.000110,  46.831
   594.0,0.000041,0.000037,0.000096,-0.000062,  46.832
   594.2,0.000034,0.000036,0.000155,-0.000075,  46.834
   594.4,0.000041,0.000034,0.000184,-0.000075,  46.837
   594.6,0.000041,0.000037,0.000212,-0.000062,  46.834
   594.8,0.000041,0.000035,0.000242,-0.000075,  46.829
   595.0,0.000044,0.000039,0.000247,-0.000075,  46.835
   595.2,0.000055,0.000039,0.000237,-0.000097,  46.834
   595.4,0.000057,0.000037,0.000222,-0.000075,  46.838
   595.6,0.000044,0.000037,0.000194,-0.000075,  46.838
   595.8,0.000047,0.000038,0.000189,-0.000097,  46.836
   596.0,0.000050,0.000036,0.000169,-0.000075,  46.840
   596.2,0.000049,0.000032,0.000165,-0.000075,  46.842
   596.4,0.000058,0.000032,0.000175,-0.000075,  46.841
   596.6,0.000063,0.000030,0.000175,-0.000052,  46.841
   596.8,0.000056,0.000030,0.000179,-0.000065,  46.840
   597.0,0.000060,0.000034,0.000218,-0.000078,  46.839
   597.2,0.000060,0.000030,0.000262,-0.000091,  46.844
   597.4,0.000051,0.000028,0.000321,-0.000091,  46.842
   597.6,0.000055,0.000028,0.000311,-0.000114,  46.837
   597.8,0.000055,0.000025,0.000268,-0.000101,  46.839
   598.0,0.000049,0.000021,0.000187,-0.000088,  46.851
   598.2,0.000055,0.000025,0.000152,-0.000110,  46.841
   598.4,0.000058,0.000027,0.000118,-0.000088,  46.842
   598.6,0.000051,0.000027,0.000073,-0.000088,  46.838
   598.8,0.000060,0.000034,0.000088,-0.000123,  46.841
   599.0,0.000058,0.000036,0.000136,-0.000088,  46.839
   599.2,0.000051,0.000036,0.000199,-0.000088,  46.841
   599.4,0.000052,0.000036,0.000189,-0.000123,  46.842
   599.6,0.000047,0.000041,0.000165,-0.000088,  46.838
   599.8,0.000041,0.000036,0.000126,-0.000088,  46.839
   600.0,0.000047,0.000036,0.000082,-0.000123,  46.837
   600.2,0.000047,0.000040,0.000029,-0.000088,  46.840
   600.4,0.000050,0.000036,-0.000038,-0.000088,  46.839
   600.6,0.000046,0.000040,0.000000,-0.000123,  46.839
   600.8,0.000055,0.000039,0.000073,-0.000088,  46.835
   601.0,0.000058,0.000034,0.000179,-0.000088,  46.839
   601.2,0.000051,0.000033,-0.000080,-0.000088,  46.843
   601.4,0.000052,0.000030,-0.000505,-0.000075,  46.840
   601.6,0.000055,0.000039,-0.001095,-0.000075,  46.834
   601.8,0.000051,0.000041,-0.001853,-0.000075,  46.842
   602.0,0.000060,0.000037,-0.001770,-0.000097,  46.837
   602.2,0.000056,0.000041,-0.001464,-0.000075,  46.838
   602.4,0.000054,0.000040,-0.000939,-0.000075,  46.837
   602.6,0.000054,0.000037,-0.000725,-0.000097,  46.836
   602.8,0.000056,0.000041,-0.000579,-0.000075,  46.841
   603.0,0.000056,0.000045,-0.000471,-0.000062,  46.840
   603.2,0.000065,0.000047,-0.000315,-0.000097,  46.846
   603.4,0.000068,0.000053,-0.000159,-0.000062,  46.845
   603.6,0.000068,0.000049,-0.000017,-0.000084,  46.841
   603.8,0.000074,0.000050,0.000139,-0.000084,  46.842
   604.0,0.000077,0.000052,0.000289,-0.000084,  46.845
   604.2,0.000074,0.000054,0.000446,-0.000107,  46.841
   604.4,0.000072,0.000056,0.000510,-0.000084,  46.847
   604.6,0.000077,0.000050,0.000516,-0.000097,  46.845
   604.8,0.000077,0.000049,0.000489,-0.000120,  46.845
   605.0,0.000080,0.000049,0.000456,-0.000097,  46.845
   605.2,0.000082,0.000049,0.000373,-0.000097,  46.842
   605.4,0.000079,0.000050,0.000270,-0.000120,  46.845
   605.6,0.000076,0.000053,0.000255,-0.000097,  46.845
   605.8,0.000076,0.000054,0.000245,-0.000097,  46.836
   606.0,0.000069,0.000058,0.000270,-0.000120,  46.844
   606.2,0.000079,0.000055,0.000280,-0.000097,  46.844
   606.4,0.000079,0.000053,0.000270,-0.000097,  46.855
   606.6,0.000077,0.000054,0.000270,-0.000120,  46.851
   606.8,0.000086,0.000053,0.000270,-0.000097,  46.845
   607.0,0.000095,0.000049,0.000255,-0.000097,  46.846
   607.2,0.000095,0.000053,0.000241,-0.000097,  46.846
   607.4,0.000090,0.000058,0.000255,-0.000084,  46.843
   607.6,0.000082,0.000058,0.000286,-0.000097,  46.847
   607.8,0.000082,0.000055,0.000320,-0.000097,  46.844
   608.0,0.000076,0.000053,0.000340,-0.000097,  46.843
   608.2,0.000073,0.000050,0.000339,-0.000097,  46.843
   608.4,0.000071,0.000050,0.000354,-0.000110,  46.840
   608.6,0.000064,0.000053,0.000354,-0.000146,  46.837
   608.8,0.000071,0.000046,0.000174,-0.000097,  46.833
   609.0,0.000068,0.000049,-0.000104,-0.000110,  46.838
   609.2,0.000062,0.000054,-0.000460,-0.000146,  46.839
   609.4,0.000071,0.000051,-0.000640,-0.000097,  46.841
   609.6,0.000071,0.000049,-0.000806,-0.000110,  46.844
   609.8,0.000064,0.000053,-0.000923,-0.000146,  46.835
   610.0,0.000071,0.000053,-0.000812,-0.000097,  46.832
   610.2,0.000071,0.000047,-0.000573,-0.000110,  46.834
   610.4,0.000064,0.000051,-0.000203,-0.000110,  46.839
   610.6,0.000068,0.000045,-0.000282,-0.000110,  46.838
   610.8,0.000073,0.000042,-0.000504,-0.000088,  46.836
   611.0,0.000067,0.000046,-0.000887,-0.000088,  46.836
   611.2,0.000073,0.000049,-0.000897,-0.000110,  46.837
   611.4,0.000073,0.000047,-0.000804,-0.000075,  46.836
   611.6,0.000067,0.000051,-0.000604,-0.000075,  46.841
   611.8,0.000071,0.000051,-0.000497,-0.000097,  46.841
   612.0,0.000068,0.000051,-0.000394,-0.000075,  46.836
   612.2,0.000062,0.000051,-0.000297,-0.000075,  46.839
   612.4,0.000071,0.000051,-0.000200,-0.000097,  46.841
   612.6,0.000071,0.000049,-0.000118,-0.000075,  46.842
   612.8,0.000064,0.000053,-0.000041,-0.000075,  46.844
   613.0,0.000068,0.000055,0.000041,-0.000062,  46.846
   613.2,0.000065,0.000052,0.000124,-0.000039,  46.845
   613.4,0.000064,0.000055,0.000192,-0.000039,  46.843
   613.6,0.000065,0.000053,0.000207,-0.000062,  46.848
   613.8,0.000065,0.000051,0.000178,-0.000075,  46.846
   614.0,0.000059,0.000047,0.000115,-0.000075,  46.845
   614.2,0.000060,0.000049,0.000139,-0.000097,  46.848
   614.4,0.000058,0.000049,0.000182,-0.000075,  46.844
   614.6,0.000058,0.000040,0.000245,-0.000075,  46.848
   614.8,0.000054,0.000043,0.000201,-0.000110,  46.855
   615.0,0.000058,0.000043,0.000129,-0.000062,  46.857
   615.2,0.000058,0.000038,-0.000007,-0.000075,  46.855
   615.4,0.000060,0.000036,-0.000422,-0.000062,  46.848
   615.6,0.000064,0.000032,-0.000997,-0.000062,  46.853
   615.8,0.000064,0.000030,-0.001763,-0.000062,  46.849
   616.0,0.000064,0.000028,-0.002677,-0.000062,  46.856
   616.2,0.000061,0.000021,-0.002571,-0.000097,  46.854
   616.4,0.000061,0.000017,-0.002153,-0.000075,  46.852
   616.6,0.000059,0.000019,-0.001448,-0.000062,  46.853
   616.8,0.000056,0.000020,-0.001128,-0.000097,  46.855
   617.0,0.000054,0.000017,-0.000865,-0.000062,  46.857
   617.2,0.000054,0.000021,-0.000646,-0.000049,  46.852
   617.4,0.000057,0.000021,-0.000739,-0.000097,  46.854
   617.6,0.000057,0.000021,-0.001021,-0.000062,  46.854
   617.8,0.000048,0.000021,-0.001487,-0.000084,  46.855
   618.0,0.000055,0.000019,-0.001337,-0.000084,  46.856
   618.2,0.000055,0.000015,-0.000979,-0.000084,  46.851
   618.4,0.000046,0.000017,-0.000411,-0.000071,  46.850
   618.6,0.000047,0.000015,-0.000210,-0.000084,  46.848
   618.8,0.000047,0.000014,-0.000103,-0.000062,  46.844
   619.0,0.000043,0.000020,-0.000071,-0.000062,  46.846
   619.2,0.000047,0.000025,-0.000066,-0.000097,  46.844
   619.4,0.000047,0.000025,-0.000120,-0.000075,  46.846
   619.6,0.000040,0.000024,-0.000222,-0.000075,  46.845
   619.8,0.000044,0.000025,-0.000232,-0.000097,  46.843
   620.0,0.000044,0.000027,-0.000222,-0.000075,  46.842
   620.2,0.000047,0.000023,-0.000207,-0.000075,  46.844
   620.4,0.000047,0.000032,-0.000286,-0.000097,  46.840
   620.6,0.000049,0.000028,-0.000418,-0.000075,  46.842
   620.8,0.000052,0.000027,-0.000594,-0.000075,  46.841
   621.0,0.000052,0.000024,-0.000584,-0.000097,  46.837
   621.2,0.000049,0.000024,-0.000511,-0.000075,  46.841
   621.4,0.000052,0.000021,-0.000379,-0.000075,  46.839
   621.6,0.000043,0.000027,-0.000320,-0.000110,  46.841
   621.8,0.000043,0.000027,-0.000272,-0.000075,  46.837
   622.0,0.000046,0.000026,-0.000259,-0.000088,  46.840
   622.2,0.000046,0.000023,-0.000221,-0.000088,  46.839
   622.4,0.000046,0.000021,-0.000188,-0.000088,  46.834
   622.6,0.000048,0.000025,-0.000148,-0.000088,  46.836
   622.8,0.000048,0.000025,-0.000109,-0.000088,  46.835
   623.0,0.000052,0.000023,-0.000115,-0.000123,  46.828
   623.2,0.000055,0.000025,-0.000123,-0.000088,  46.844
   623.4,0.000048,0.000025,-0.000162,-0.000088,  46.840
   623.6,0.000055,0.000025,-0.000304,-0.000088,  46.838
   623.8,0.000060,0.000025,-0.000504,-0.000065,  46.833
   624.0,0.000056,0.000030,-0.000767,-0.000065,  46.838
   624.2,0.000068,0.000032,-0.000708,-0.000052,  46.837
   624.4,0.000068,0.000026,-0.000512,-0.000065,  46.837
   624.6,0.000059,0.000028,-0.000210,-0.000065,  46.838
   624.8,0.000060,0.000026,-0.000132,-0.000065,  46.835
   625.0,0.000060,0.000024,-0.000122,-0.000078,  46.838
   625.2,0.000056,0.000020,-0.000180,-0.000078,  46.839
   625.4,0.000065,0.000023,-0.000112,-0.000078,  46.836
   625.6,0.000068,0.000023,-0.000019,-0.000078,  46.840
   625.8,0.000064,0.000027,0.000089,-0.000078,  46.838
   626.0,0.000068,0.000036,0.000103,-0.000065,  46.842
   626.2,0.000068,0.000038,0.000079,-0.000052,  46.847
   626.4,0.000068,0.000037,0.000036,-0.000052,  46.848
   626.6,0.000074,0.000038,0.000020,-0.000039,  46.845
   626.8,0.000074,0.000042,0.000016,-0.000039,  46.845
   627.0,0.000074,0.000040,0.000012,-0.000039,  46.847
   627.2,0.000068,0.000038,0.000012,-0.000062,  46.842
   627.4,0.000068,0.000039,0.000007,-0.000075,  46.846
   627.6,0.000065,0.000037,-0.000011,-0.000075,  46.850
   627.8,0.000065,0.000042,-0.000026,-0.000097,  46.847
   628.0,0.000065,0.000039,-0.000036,-0.000075,  46.846
   628.2,0.000068,0.000038,-0.000064,-0.000097,  46.844
   628.4,0.000064,0.000047,-0.000046,-0.000097,  46.845
   628.6,0.000073,0.000051,0.000009,-0.000097,  46.845
   628.8,0.000076,0.000047,0.000072,-0.000097,  46.844
   629.0,0.000073,0.000052,-0.000222,-0.000120,  46.842
   629.2,0.000079,0.000056,-0.000671,-0.000097,  46.840
   629.4,0.000082,0.000056,-0.001295,-0.000097,  46.837
   629.6,0.000082,0.000054,-0.002086,-0.000084,  46.839
   629.8,0.000085,0.000050,-0.001974,-0.000097,  46.835
   630.0,0.000087,0.000052,-0.001619,-0.000097,  46.833
   630.2,0.000085,0.000054,-0.001022,-0.000120,  46.836
   630.4,0.000082,0.000049,-0.000794,-0.000084,  46.828
   630.6,0.000085,0.000053,-0.000638,-0.000084,  46.832
   630.8,0.000081,0.000057,-0.000529,-0.000107,  46.831
   631.0,0.000081,0.000057,-0.000406,-0.000071,  46.829
   631.2,0.000083,0.000057,-0.000313,-0.000084,  46.825
   631.4,0.000077,0.000058,-0.000239,-0.000084,  46.820
   631.6,0.000077,0.000056,-0.000131,-0.000084,  46.827
   631.8,0.000077,0.000054,-0.000024,-0.000075,  46.821
   632.0,0.000074,0.000051,0.000092,-0.000075,  46.822
   632.2,0.000078,0.000053,0.000145,-0.000097,  46.819
   632.4,0.000078,0.000049,0.000155,-0.000075,  46.817
   632.6,0.000067,0.000053,0.000136,-0.000075,  46.814
   632.8,0.000065,0.000053,0.000151,-0.000097,  46.811
   633.0,0.000065,0.000049,0.000181,-0.000075,  46.790
   633.2,0.000064,0.000053,0.000201,-0.000062,  46.795
   633.4,0.000070,0.000053,0.000225,-0.000097,  46.794
   633.6,0.000070,0.000051,0.000255,-0.000062,  46.791
   633.8,0.000076,0.000059,0.000290,-0.000049,  46.788
   634.0,0.000076,0.000065,0.000324,-0.000084,  46.784
   634.2,0.000078,0.000063,0.000359,-0.000049,  46.782
   634.4,0.000074,0.000066,0.000393,-0.000036,  46.781
   634.6,0.000074,0.000070,0.000417,-0.000084,  46.780
   634.8,0.000077,0.000072,0.000428,-0.000062,  46.776
   635.0,0.000080,0.000075,0.000433,-0.000062,  46.776
   635.2,0.000085,0.000079,0.000395,-0.000097,  46.775
   635.4,0.000088,0.000085,0.000317,-0.000049,  46.770
   635.6,0.000093,0.000080,0.000226,-0.000049,  46.769
   635.8,0.000095,0.000079,0.000211,-0.000036,  46.758
   636.0,0.000093,0.000075,0.000236,-0.000036,  46.764
   636.2,0.000095,0.000077,0.000264,-0.000049,  46.762
   636.4,0.000095,0.000082,0.000337,-0.000036,  46.765
   636.6,0.000099,0.000081,0.000333,-0.000071,  46.762
   636.8,0.000104,0.000088,0.000315,-0.000049,  46.760
   637.0,0.000103,0.000088,0.000272,-0.000036,  46.761
   637.2,0.000112,0.000087,0.000320,-0.000036,  46.760
   637.4,0.000115,0.000089,0.000414,-0.000013,  46.755
   637.6,0.000111,0.000093,0.000535,0.000000,  46.759
   637.8,0.000115,0.000090,0.000545,-0.000036,  46.759
   638.0,0.000115,0.000095,0.000507,-0.000036,  46.760
   638.2,0.000106,0.000088,0.000445,-0.000023,  46.756
   638.4,0.000110,0.000089,0.000427,-0.000058,  46.750
   638.6,0.000107,0.000089,0.000402,-0.000023,  46.748
   638.8,0.000101,0.000092,0.000378,-0.000010,  46.758
   639.0,0.000107,0.000088,0.000291,-0.000045,  46.753
   639.2,0.000104,0.000085,0.000170,-0.000023,  46.756
   639.4,0.000098,0.000083,0.000016,-0.000010,  46.758
   639.6,0.000104,0.000080,0.000049,-0.000058,  46.760
   639.8,0.000107,0.000077,0.000180,-0.000036,  46.758
   640.0,0.000101,0.000077,0.000384,-0.000023,  46.759
   640.2,0.000104,0.000077,0.000412,-0.000071,  46.767
   640.4,0.000104,0.000080,0.000408,-0.000036,  46.760
   640.6,0.000101,0.000079,0.000361,-0.000023,  46.764
   640.8,0.000107,0.000085,0.000361,-0.000071,  46.762
   641.0,0.000103,0.000079,0.000351,-0.000036,  46.762
   641.2,0.000097,0.000081,0.000347,-0.000023,  46.762
   641.4,0.000094,0.000080,0.000371,-0.000071,  46.762
   641.6,0.000098,0.000077,0.000405,-0.000049,  46.764
   641.8,0.000098,0.000080,0.000444,-0.000036,  46.762
   642.0,0.000098,0.000084,0.000458,-0.000071,  46.765
   642.2,0.000098,0.000086,0.000468,-0.000036,  46.765
   642.4,0.000101,0.000084,0.000458,-0.000036,  46.763
   642.6,0.000101,0.000085,0.000473,-0.000071,  46.761
   642.8,0.000098,0.000087,0.000493,-0.000036,  46.769
   643.0,0.000101,0.000089,0.000493,-0.000036,  46.765
   643.2,0.000101,0.000084,0.000503,-0.000023,  46.767
   643.4,0.000098,0.000080,0.000513,-0.000036,  46.774
   643.6,0.000101,0.000078,0.000523,-0.000036,  46.775
   643.8,0.000098,0.000077,0.000533,-0.000023,  46.775
   644.0,0.000095,0.000077,0.000557,-0.000071,  46.774
   644.2,0.000098,0.000081,0.000562,-0.000036,  46.768
   644.4,0.000095,0.000081,0.000586,-0.000023,  46.768
   644.6,0.000095,0.000081,0.000619,-0.000071,  46.771
   644.8,0.000098,0.000081,0.000662,-0.000036,  46.775
   645.0,0.000095,0.000077,0.000731,-0.000058,  46.778
   645.2,0.000095,0.000077,0.000780,-0.000058,  46.778
   645.4,0.000098,0.000075,0.000813,-0.000058,  46.779
   645.6,0.000098,0.000077,0.000841,-0.000081,  46.781
   645.8,0.000098,0.000081,0.000774,-0.000045,  46.779
   646.0,0.000101,0.000079,0.000649,-0.000058,  46.781
   646.2,0.000098,0.000079,0.000446,-0.000081,  46.784
   646.4,0.000102,0.000082,0.000127,-0.000058,  46.785
   646.6,0.000104,0.000084,-0.000288,-0.000071,  46.787
   646.8,0.000093,0.000081,-0.000795,-0.000094,  46.787
   647.0,0.000097,0.000083,-0.000815,-0.000071,  46.787
   647.2,0.000097,0.000081,-0.000649,-0.000071,  46.787
   647.4,0.000088,0.000083,-0.000293,-0.000094,  46.789
   647.6,0.000091,0.000082,-0.000192,-0.000071,  46.786
   647.8,0.000091,0.000077,-0.000103,-0.000071,  46.790
   648.0,0.000091,0.000077,-0.000049,-0.000094,  46.788
   648.2,0.000091,0.000071,0.000043,-0.000071,  46.787
   648.4,0.000089,0.000065,0.000154,-0.000071,  46.795
   648.6,0.000089,0.000071,0.000282,-0.000058,  46.797
   648.8,0.000093,0.000073,0.000335,-0.000071,  46.794
   649.0,0.000090,0.000073,0.000359,-0.000049,  46.791
   649.2,0.000087,0.000070,0.000365,-0.000049,  46.794
   649.4,0.000085,0.000073,0.000404,-0.000049,  46.797
   649.6,0.000082,0.000075,0.000437,-0.000036,  46.795
   649.8,0.000085,0.000068,0.000480,-0.000049,  46.795
   650.0,0.000087,0.000067,0.000376,-0.000036,  46.796
   650.2,0.000090,0.000065,0.000214,-0.000036,  46.798
   650.4,0.000093,0.000065,-0.000009,-0.000049,  46.800
   650.6,0.000091,0.000072,-0.000301,-0.000036,  46.803
   650.8,0.000094,0.000072,-0.000262,-0.000071,  46.801
   651.0,0.000099,0.000071,-0.000135,-0.000049,  46.804
   651.2,0.000095,0.000074,0.000090,-0.000036,  46.803
   651.4,0.000102,0.000077,0.000173,-0.000071,  46.810
   651.6,0.000104,0.000077,0.000232,-0.000049,  46.810
   651.8,0.000095,0.000076,0.000272,-0.000036,  46.813
   652.0,0.000102,0.000075,0.000374,-0.000071,  46.813
   652.2,0.000104,0.000077,0.000480,-0.000049,  46.812
   652.4,0.000098,0.000075,0.000626,-0.000071,  46.814
   652.6,0.000104,0.000077,0.000470,-0.000058,  46.816
   652.8,0.000110,0.000073,0.000157,-0.000058,  46.811
   653.0,0.000106,0.000073,-0.000301,-0.000045,  46.816
   653.2,0.000112,0.000077,-0.000198,-0.000058,  46.823
   653.4,0.000115,0.000077,0.000114,-0.000049,  46.827
   653.6,0.000114,0.000082,0.000607,-0.000036,  46.828
   653.8,0.000118,0.000088,0.000729,-0.000058,  46.844
   654.0,0.000120,0.000090,0.000754,-0.000023,  46.847
   654.2,0.000116,0.000089,0.000691,-0.000010,  46.846
   654.4,0.000125,0.000094,0.000719,-0.000045,  46.847
   654.6,0.000132,0.000097,0.000748,-0.000023,  46.848
   654.8,0.000129,0.000095,0.000798,-0.000010,  46.851
   655.0,0.000143,0.000099,0.000808,-0.000045,  46.849
   655.2,0.000142,0.000106,0.000798,-0.000023,  46.848
   655.4,0.000141,0.000104,0.000790,-0.000010,  46.843
   655.6,0.000146,0.000107,0.000785,-0.000045,  46.846
   655.8,0.000147,0.000113,0.000767,-0.000023,  46.848
   656.0,0.000146,0.000115,0.000754,-0.000010,  46.847
   656.2,0.000149,0.000115,0.000744,-0.000045,  46.849
   656.4,0.000149,0.000114,0.000745,-0.000023,  46.850
   656.6,0.000147,0.000114,0.000745,-0.000023,  46.851
   656.8,0.000150,0.000119,0.000741,-0.000045,  46.854
   657.0,0.000150,0.000114,0.000712,-0.000023,  46.860
   657.2,0.000146,0.000117,0.000674,-0.000023,  46.854
   657.4,0.000140,0.000118,0.000376,-0.000023,  46.854
   657.6,0.000140,0.000113,-0.000050,-0.000023,  46.856
   657.8,0.000143,0.000113,-0.000610,-0.000023,  46.856
   658.0,0.000145,0.000115,-0.001303,-0.000010,  46.860
   658.2,0.000145,0.000114,-0.001220,-0.000045,  46.861
   658.4,0.000148,0.000116,-0.000913,-0.000010,  46.865
   658.6,0.000148,0.000123,-0.000366,-0.000010,  46.863
   658.8,0.000154,0.000122,-0.000160,-0.000045,  46.866
   659.0,0.000157,0.000126,-0.000012,-0.000010,  46.868
   659.2,0.000153,0.000133,0.000076,0.000003,  46.866
   659.4,0.000153,0.000137,0.000228,-0.000019,  46.869
   659.6,0.000156,0.000136,0.000370,0.000017,  46.869
   659.8,0.000154,0.000140,0.000512,0.000030,  46.877
   660.0,0.000152,0.000139,0.000419,0.000007,  46.877
   660.2,0.000154,0.000139,0.000204,0.000030,  46.877
   660.4,0.000151,0.000140,-0.000117,0.000030,  46.879
   660.6,0.000157,0.000143,-0.000054,-0.000006,  46.877
   660.8,0.000160,0.000143,0.000157,0.000017,  46.875
   661.0,0.000153,0.000146,0.000519,0.000017,  46.876
   661.2,0.000157,0.000144,0.000651,-0.000006,  46.878
   661.4,0.000160,0.000144,0.000749,0.000017,  46.874
   661.6,0.000153,0.000139,0.000813,0.000017,  46.882
   661.8,0.000157,0.000144,0.000892,-0.000006,  46.885
   662.0,0.000160,0.000144,0.000931,0.000017,  46.889
   662.2,0.000156,0.000142,0.000961,0.000017,  46.887
   662.4,0.000165,0.000144,0.001006,-0.000006,  46.890
   662.6,0.000168,0.000148,0.001026,0.000030,  46.891
   662.8,0.000161,0.000150,0.001042,0.000030,  46.899
   663.0,0.000173,0.000155,0.001032,-0.000006,  46.899
   663.2,0.000173,0.000159,0.001009,0.000030,  46.900
   663.4,0.000169,0.000163,0.000952,0.000030,  46.906
   663.6,0.000175,0.000163,0.000952,-0.000006,  46.906
   663.8,0.000178,0.000165,0.000972,0.000030,  46.906
   664.0,0.000181,0.000163,0.001002,0.000030,  46.910
   664.2,0.000174,0.000163,0.001018,-0.000006,  46.913
   664.4,0.000181,0.000165,0.000998,0.000030,  46.913
   664.6,0.000183,0.000160,0.000993,0.000017,  46.915
   664.8,0.000179,0.000163,0.000754,0.000017,  46.918
   665.0,0.000186,0.000163,0.000397,0.000017,  46.913
   665.2,0.000188,0.000165,-0.000082,0.000030,  46.915
   665.4,0.000179,0.000169,-0.000682,0.000030,  46.919
   665.6,0.000181,0.000171,-0.000561,-0.000006,  46.915
   665.8,0.000183,0.000166,-0.000239,0.000030,  46.917
   666.0,0.000177,0.000166,0.000314,0.000030,  46.918
   666.2,0.000181,0.000168,0.000534,-0.000019,  46.913
   666.4,0.000174,0.000161,0.000691,0.000003,  46.915
   666.6,0.000174,0.000166,0.000788,0.000003,  46.919
   666.8,0.000169,0.000164,0.000877,-0.000019,  46.916
   667.0,0.000169,0.000157,0.000912,0.000017,  46.916
   667.2,0.000166,0.000155,0.000907,-0.000019,  46.920
   667.4,0.000168,0.000156,0.000883,-0.000006,  46.920
   667.6,0.000165,0.000147,0.000820,-0.000019,  46.922
   667.8,0.000159,0.000142,0.000724,-0.000055,  46.920
   668.0,0.000162,0.000144,0.000764,-0.000006,  46.921
   668.2,0.000162,0.000140,0.000837,-0.000019,  46.924
   668.4,0.000153,0.000144,0.000969,-0.000055,  46.926
   668.6,0.000160,0.000142,0.001042,-0.000006,  46.926
   668.8,0.000162,0.000138,0.001100,-0.000019,  46.931
   669.0,0.000153,0.000139,0.001147,-0.000055,  46.935
   669.2,0.000160,0.000142,0.001156,-0.000006,  46.932
   669.4,0.000160,0.000144,0.001140,-0.000019,  46.934
   669.6,0.000153,0.000137,0.001097,-0.000055,  46.934
   669.8,0.000160,0.000139,0.001097,-0.000006,  46.931
   670.0,0.000157,0.000135,0.001091,-0.000019,  46.929
   670.2,0.000151,0.000133,0.001091,-0.000055,  46.936
   670.4,0.000157,0.000129,0.001067,-0.000006,  46.938
   670.6,0.000152,0.000127,0.001008,-0.000019,  46.954
   670.8,0.000152,0.000127,0.000934,-0.000019,  46.957
   671.0,0.000149,0.000129,0.000939,-0.000019,  46.953
   671.2,0.000150,0.000127,0.000947,-0.000032,  46.956
   671.4,0.000148,0.000119,0.000990,-0.000032,  46.960
   671.6,0.000141,0.000122,0.001009,-0.000032,  46.963
   671.8,0.000139,0.000118,0.001043,-0.000032,  46.966
   672.0,0.000139,0.000112,0.001052,-0.000032,  46.966
   672.2,0.000130,0.000111,0.001076,-0.000045,  46.963
   672.4,0.000136,0.000109,0.001115,-0.000045,  46.969
   672.6,0.000136,0.000102,0.001144,-0.000010,  46.972
   672.8,0.000127,0.000102,0.001172,-0.000023,  46.972
   673.0,0.000128,0.000099,0.001147,-0.000058,  46.974
   673.2,0.000128,0.000099,0.001088,-0.000010,  46.974
   673.4,0.000122,0.000103,0.001020,-0.000045,  46.976
   673.6,0.000126,0.000103,0.000673,-0.000045,  46.975
   673.8,0.000126,0.000101,0.000174,-0.000045,  46.977
   674.0,0.000126,0.000101,-0.000480,-0.000068,  46.975
   674.2,0.000129,0.000098,-0.000567,-0.000019,  46.979
   674.4,0.000127,0.000101,-0.000444,-0.000019,  46.982
   674.6,0.000118,0.000097,-0.000136,-0.000042,  46.980
   674.8,0.000113,0.000095,0.000020,0.000007,  46.984
   675.0,0.000113,0.000092,0.000176,-0.000019,  46.991
   675.2,0.000110,0.000094,0.000362,-0.000055,  46.991
   675.4,0.000119,0.000093,0.000508,-0.000019,  46.995
   675.6,0.000122,0.000093,0.000618,-0.000032,  46.996
   675.8,0.000119,0.000096,0.000724,-0.000068,  47.000
   676.0,0.000119,0.000095,0.000822,-0.000032,  47.004
   676.2,0.000119,0.000096,0.000889,-0.000032,  47.004
   676.4,0.000118,0.000092,0.000948,-0.000068,  47.007
   676.6,0.000118,0.000096,0.000983,-0.000032,  47.007
   676.8,0.000120,0.000098,0.000973,-0.000032,  47.010
   677.0,0.000117,0.000101,0.000938,-0.000068,  47.014
   677.2,0.000117,0.000103,0.000958,-0.000032,  47.014
   677.4,0.000114,0.000104,0.000958,-0.000032,  47.019
   677.6,0.000114,0.000103,0.000968,-0.000032,  47.021
   677.8,0.000114,0.000105,0.001003,-0.000019,  47.026
   678.0,0.000120,0.000103,0.001042,-0.000032,  47.027
   678.2,0.000120,0.000100,0.001080,-0.000032,  47.030
   678.4,0.000123,0.000109,0.001046,-0.000032,  47.028
   678.6,0.000129,0.000108,0.000983,-0.000032,  47.030
   678.8,0.000129,0.000105,0.000885,-0.000032,  47.031
   679.0,0.000123,0.000104,0.000851,-0.000081,  47.036
   679.2,0.000120,0.000100,0.000846,-0.000045,  47.052
   679.4,0.000118,0.000105,0.000841,-0.000045,  47.047
   679.6,0.000118,0.000104,0.000855,-0.000081,  47.052
   679.8,0.000131,0.000101,0.000865,-0.000045,  47.047
   680.0,0.000131,0.000103,0.000879,-0.000032,  47.051
   680.2,0.000127,0.000105,0.000899,-0.000055,  47.051
   680.4,0.000136,0.000107,0.000885,-0.000006,  47.053
   680.6,0.000138,0.000109,0.000851,-0.000019,  47.053
   680.8,0.000135,0.000111,0.000793,-0.000055,  47.049
   681.0,0.000136,0.000113,0.000775,-0.000019,  47.048
   681.2,0.000136,0.000113,0.000750,-0.000032,  47.049
   681.4,0.000129,0.000114,0.000726,-0.000081,  47.042
   681.6,0.000133,0.000115,0.000624,-0.000045,  47.044
   681.8,0.000133,0.000108,0.000469,-0.000045,  47.046
   682.0,0.000129,0.000106,0.000260,-0.000094,  47.040
   682.2,0.000136,0.000109,0.000293,-0.000058,  47.042
   682.4,0.000133,0.000101,0.000423,-0.000045,  47.039
   682.6,0.000127,0.000101,0.000651,-0.000081,  47.033
   682.8,0.000128,0.000104,0.000698,-0.000045,  47.035
   683.0,0.000128,0.000105,0.000709,-0.000045,  47.033
   683.2,0.000128,0.000096,0.000690,-0.000081,  47.027
   683.4,0.000128,0.000096,0.000719,-0.000045,  47.028
   683.6,0.000125,0.000097,0.000747,-0.000045,  47.033
   683.8,0.000119,0.000096,0.000776,-0.000081,  47.026
   684.0,0.000116,0.000096,0.000805,-0.000045,  47.029
   684.2,0.000114,0.000096,0.000839,-0.000045,  47.022
   684.4,0.000116,0.000098,0.000863,-0.000081,  47.021
   684.6,0.000114,0.000097,0.000892,-0.000045,  47.003
   684.8,0.000114,0.000099,0.000916,-0.000045,  47.001
   685.0,0.000116,0.000103,0.000947,-0.000045,  47.000
   685.2,0.000116,0.000106,0.000942,-0.000045,  46.996
   685.4,0.000119,0.000105,0.000914,-0.000045,  47.000
   685.6,0.000122,0.000111,0.000865,-0.000045,  46.996
   685.8,0.000122,0.000114,0.000851,-0.000045,  47.001
   686.0,0.000122,0.000113,0.000851,-0.000045,  47.002
   686.2,0.000124,0.000111,0.000861,-0.000045,  46.996
   686.4,0.000128,0.000111,0.000865,-0.000081,  46.989
   686.6,0.000129,0.000106,0.000879,-0.000045,  46.989
   686.8,0.000132,0.000105,0.000909,-0.000045,  46.993
   687.0,0.000132,0.000113,0.000934,-0.000068,  46.990
   687.2,0.000132,0.000115,0.000928,-0.000032,  46.988
   687.4,0.000134,0.000111,0.000898,-0.000032,  46.989
   687.6,0.000134,0.000118,0.000849,-0.000055,  46.987
   687.8,0.000134,0.000114,0.000815,-0.000019,  46.989
   688.0,0.000140,0.000113,0.000776,-0.000032,  46.988
   688.2,0.000140,0.000111,0.000717,-0.000068,  46.985
   688.4,0.000140,0.000114,0.000723,-0.000019,  46.986
   688.6,0.000142,0.000116,0.000733,-0.000019,  46.991
   688.8,0.000142,0.000116,0.000763,-0.000055,  46.985
   689.0,0.000140,0.000114,0.000777,-0.000006,  46.985
   689.2,0.000137,0.000112,0.000792,-0.000019,  46.988
   689.4,0.000137,0.000114,0.000812,-0.000055,  46.991
   689.6,0.000134,0.000118,0.000806,-0.000006,  46.996
   689.8,0.000134,0.000113,0.000812,-0.000019,  46.993
   690.0,0.000134,0.000113,0.000818,-0.000055,  46.997
   690.2,0.000137,0.000116,0.000832,-0.000006,  46.997
   690.4,0.000137,0.000118,0.000836,-0.000019,  46.999
   690.6,0.000137,0.000117,0.000845,-0.000055,  47.001
   690.8,0.000131,0.000114,0.000865,-0.000006,  47.008
   691.0,0.000137,0.000113,0.000865,-0.000019,  47.004
   691.2,0.000137,0.000114,0.000865,-0.000055,  47.008
   691.4,0.000131,0.000111,0.000865,-0.000019,  47.010
   691.6,0.000128,0.000106,0.000861,-0.000032,  47.029
   691.8,0.000131,0.000105,0.000846,-0.000032,  47.027
   692.0,0.000122,0.000102,0.000830,-0.000032,  47.033
   692.2,0.000125,0.000101,0.000832,-0.000032,  47.039
   692.4,0.000128,0.000105,0.000808,-0.000032,  47.041
   692.6,0.000128,0.000107,0.000558,-0.000032,  47.044
   692.8,0.000137,0.000105,0.000201,-0.000032,  47.044
   693.0,0.000140,0.000109,-0.000283,-0.000032,  47.045
   693.2,0.000140,0.000115,-0.000883,-0.000068,  47.052
   693.4,0.000140,0.000114,-0.000791,-0.000032,  47.054
   693.6,0.000142,0.000115,-0.000474,-0.000032,  47.051
   693.8,0.000136,0.000116,0.000032,-0.000068,  47.055
   694.0,0.000133,0.000116,0.000221,-0.000032,  47.059
   694.2,0.000133,0.000121,0.000358,-0.000032,  47.060
   694.4,0.000127,0.000120,0.000447,-0.000068,  47.063
   694.6,0.000133,0.000120,0.000535,-0.000032,  47.061
   694.8,0.000133,0.000122,0.000599,-0.000032,  47.063
   695.0,0.000127,0.000119,0.000630,-0.000068,  47.067
   695.2,0.000133,0.000121,0.000664,-0.000032,  47.072
   695.4,0.000133,0.000118,0.000678,-0.000032,  47.071
   695.6,0.000127,0.000120,0.000674,-0.000068,  47.073
   695.8,0.000133,0.000120,0.000635,-0.000032,  47.074
   696.0,0.000133,0.000118,0.000582,-0.000032,  47.075
   696.2,0.000127,0.000119,0.000481,-0.000068,  47.077
   696.4,0.000133,0.000118,0.000476,-0.000032,  47.082
   696.6,0.000133,0.000113,0.000505,-0.000032,  47.083
   696.8,0.000129,0.000116,0.000554,-0.000068,  47.083
   697.0,0.000132,0.000118,0.000613,-0.000019,  47.083
   697.2,0.000135,0.000117,0.000680,-0.000019,  47.082
   697.4,0.000128,0.000119,0.000763,-0.000055,  47.087
   697.6,0.000137,0.000118,0.000792,-0.000019,  47.085
   697.8,0.000135,0.000119,0.000806,-0.000032,  47.090
   698.0,0.000128,0.000116,0.000812,-0.000068,  47.085
   698.2,0.000123,0.000118,0.000777,-0.000019,  47.089
   698.4,0.000129,0.000111,0.000719,-0.000019,  47.086
   698.6,0.000129,0.000111,0.000651,-0.000019,  47.089
   698.8,0.000132,0.000116,0.000641,-0.000006,  47.095
   699.0,0.000136,0.000116,0.000641,-0.000019,  47.090
   699.2,0.000133,0.000113,0.000671,-0.000019,  47.090
   699.4,0.000127,0.000107,0.000343,-0.000019,  47.090
   699.6,0.000128,0.000105,-0.000161,-0.000019,  47.091
   699.8,0.000123,0.000103,-0.000836,-0.000019,  47.092
   700.0,0.000109,0.000100,-0.001668,-0.000055,  47.090
   700.2,0.000107,0.000091,-0.001567,-0.000006,  47.089
   700.4,0.000104,0.000091,-0.001198,-0.000019,  47.089
   700.6,0.000098,0.000090,-0.000550,-0.000055,  47.094
   700.8,0.000107,0.000088,-0.000293,-0.000019,  47.091
   701.0,0.000110,0.000085,-0.000083,-0.000032,  47.094
   701.2,0.000103,0.000087,0.000047,-0.000068,  47.093
   701.4,0.000110,0.000087,0.000198,-0.000032,  47.093
   701.6,0.000112,0.000085,0.000340,-0.000032,  47.097
   701.8,0.000106,0.000085,0.000457,-0.000045,  47.095
   702.0,0.000103,0.000081,0.000565,-0.000045,  47.098
   702.2,0.000103,0.000079,0.000652,-0.000023,  47.095
   702.4,0.000103,0.000080,0.000721,-0.000023,  47.095
   702.6,0.000103,0.000081,0.000755,-0.000058,  47.091
   702.8,0.000101,0.000082,0.000750,-0.000023,  47.096
   703.0,0.000101,0.000077,0.000701,-0.000010,  47.092
   703.2,0.000098,0.000075,0.000681,-0.000045,  47.092
   703.4,0.000095,0.000075,0.000661,-0.000023,  47.089
   703.6,0.000095,0.000073,0.000626,-0.000010,  47.093
   703.8,0.000090,0.000071,0.000641,-0.000045,  47.088
   704.0,0.000094,0.000074,0.000669,-0.000023,  47.093
   704.2,0.000094,0.000073,0.000712,-0.000010,  47.087
   704.4,0.000094,0.000074,0.000566,-0.000045,  47.090
   704.6,0.000097,0.000074,0.000306,-0.000010,  47.088
   704.8,0.000099,0.000076,-0.000046,0.000003,  47.088
   705.0,0.000093,0.000082,-0.000066,-0.000032,  47.087
   705.2,0.000102,0.000081,0.000031,0.000003,  47.084
   705.4,0.000107,0.000083,0.000242,0.000003,  47.086
   705.6,0.000101,0.000087,0.000295,-0.000019,  47.086
   705.8,0.000110,0.000089,0.000333,0.000003,  47.085
   706.0,0.000112,0.000094,0.000359,0.000003,  47.089
   706.2,0.000109,0.000094,0.000134,0.000003,  47.086
   706.4,0.000106,0.000092,-0.000218,-0.000032,  47.087
   706.6,0.000106,0.000094,-0.000705,-0.000032,  47.086
   706.8,0.000109,0.000091,-0.001319,-0.000068,  47.088
   707.0,0.000112,0.000094,-0.001250,-0.000032,  47.085
   707.2,0.000110,0.000090,-0.000986,-0.000032,  47.086
   707.4,0.000103,0.000096,-0.000542,-0.000068,  47.084
   707.6,0.000104,0.000094,-0.000324,-0.000032,  47.087
   707.8,0.000104,0.000086,-0.000129,-0.000032,  47.088
   708.0,0.000098,0.000086,0.000051,-0.000068,  47.083
   708.2,0.000104,0.000081,0.000179,-0.000032,  47.081
   708.4,0.000107,0.000083,0.000248,-0.000032,  47.079
   708.6,0.000101,0.000083,0.000273,-0.000068,  47.078
   708.8,0.000104,0.000088,0.000328,-0.000032,  47.081
   709.0,0.000107,0.000087,0.000352,-0.000032,  47.077
   709.2,0.000098,0.000089,0.000357,-0.000068,  47.081
   709.4,0.000102,0.000084,0.000444,-0.000032,  47.080
   709.6,0.000104,0.000082,0.000562,-0.000032,  47.081
   709.8,0.000098,0.000079,0.000704,-0.000068,  47.076
   710.0,0.000107,0.000081,0.000732,-0.000032,  47.078
   710.2,0.000107,0.000081,0.000724,-0.000032,  47.067
   710.4,0.000101,0.000079,0.000655,-0.000068,  47.072
   710.6,0.000098,0.000080,0.000586,-0.000032,  47.069
   710.8,0.000098,0.000082,0.000489,-0.000032,  47.071
   711.0,0.000098,0.000079,0.000372,-0.000068,  47.066
   711.2,0.000098,0.000083,0.000383,-0.000032,  47.070
   711.4,0.000104,0.000080,0.000425,-0.000032,  47.069
   711.6,0.000102,0.000078,0.000523,-0.000068,  47.068
   711.8,0.000099,0.000075,0.000562,-0.000032,  47.066
   712.0,0.000099,0.000073,0.000590,-0.000032,  47.063
   712.2,0.000102,0.000071,0.000599,-0.000068,  47.061
   712.4,0.000093,0.000075,0.000617,-0.000032,  47.062
   712.6,0.000097,0.000073,0.000622,-0.000032,  47.064
   712.8,0.000099,0.000069,0.000612,-0.000032,  47.062
   713.0,0.000093,0.000072,0.000577,-0.000032,  47.059
   713.2,0.000093,0.000070,0.000528,-0.000032,  47.059
   713.4,0.000095,0.000070,0.000461,-0.000045,  47.057
   713.6,0.000092,0.000073,0.000402,-0.000045,  47.056
   713.8,0.000094,0.000075,0.000359,-0.000045,  47.059
   714.0,0.000097,0.000078,0.000280,-0.000045,  47.058
   714.2,0.000090,0.000083,0.000217,-0.000081,  47.051
   714.4,0.000097,0.000084,0.000212,-0.000045,  47.051
   714.6,0.000097,0.000087,0.000226,-0.000045,  47.052
   714.8,0.000098,0.000081,0.000275,-0.000081,  47.053
   715.0,0.000103,0.000081,0.000328,-0.000045,  47.051
   715.2,0.000103,0.000083,0.000411,-0.000045,  47.050
   715.4,0.000094,0.000078,0.000508,-0.000045,  47.050
   715.6,0.000097,0.000080,0.000508,-0.000058,  47.049
   715.8,0.000099,0.000082,0.000480,-0.000036,  47.044
   716.0,0.000093,0.000082,0.000382,-0.000023,  47.044
   716.2,0.000102,0.000084,0.000407,-0.000058,  47.042
   716.4,0.000104,0.000082,0.000475,-0.000023,  47.037
   716.6,0.000093,0.000089,0.000573,-0.000045,  47.033
   716.8,0.000097,0.000090,0.000606,-0.000045,  47.034
   717.0,0.000099,0.000087,0.000650,-0.000058,  47.033
   717.2,0.000093,0.000084,0.000675,-0.000081,  47.032
   717.4,0.000099,0.000080,0.000689,-0.000045,  47.025
   717.6,0.000104,0.000081,0.000685,-0.000045,  47.028
   717.8,0.000103,0.000083,0.000656,-0.000081,  47.029
   718.0,0.000109,0.000087,0.000627,-0.000045,  47.026
   718.2,0.000111,0.000089,0.000589,-0.000045,  47.023
   718.4,0.000105,0.000089,0.000526,-0.000081,  47.018
   718.6,0.000109,0.000090,0.000526,-0.000045,  47.019
   718.8,0.000103,0.000085,0.000554,-0.000045,  47.018
   719.0,0.000097,0.000092,0.000587,-0.000081,  47.014
   719.2,0.000097,0.000094,0.000577,-0.000045,  47.015
   719.4,0.000103,0.000090,0.000563,-0.000045,  47.008
   719.6,0.000103,0.000094,0.000530,-0.000045,  47.009
   719.8,0.000106,0.000090,0.000524,-0.000045,  47.005
   720.0,0.000106,0.000086,0.000538,-0.000045,  47.004
   720.2,0.000106,0.000090,0.000569,-0.000045,  47.004
   720.4,0.000109,0.000085,0.000583,-0.000045,  46.998
   720.6,0.000106,0.000085,0.000607,-0.000045,  47.003
   720.8,0.000103,0.000085,0.000622,-0.000045,  47.002
   721.0,0.000110,0.000088,0.000636,-0.000068,  46.997
   721.2,0.000113,0.000083,0.000650,-0.000032,  46.994
   721.4,0.000111,0.000083,0.000666,-0.000032,  46.999
   721.6,0.000104,0.000086,0.000670,-0.000055,  46.994
   721.8,0.000104,0.000086,0.000666,-0.000019,  46.997
   722.0,0.000107,0.000084,0.000636,-0.000032,  46.996
   722.2,0.000101,0.000086,0.000597,-0.000068,  46.996
   722.4,0.000101,0.000084,0.000587,-0.000032,  46.995
   722.6,0.000103,0.000084,0.000597,-0.000032,  46.994
   722.8,0.000103,0.000086,0.000602,-0.000081,  46.990
   723.0,0.000103,0.000088,0.000626,-0.000045,  46.990
   723.2,0.000103,0.000081,0.000655,-0.000045,  46.988
