Run Name,Group 5 20%
Run Date,02:31:25 PM   02-08-11
Method Name,20%B-Isocrat
Export Format Version, 1.00
Method ID,  329
Points/Second, 1.00
Number of Records,   1491
Offset from Run Start Time,00:00:00
Run End Time,00:24:53
Time,Second
QuadTec 1, (280.0 nm), AU
QuadTec 2, (260.0 nm), AU
Gradient Pump,<Not Selected>
QuadTec 3, (214.0 nm), AU
QuadTec 4, (405.0 nm), AU
Conductivity,mS/cm
Trace 6,<Not Available>
GP Pressure,<Not Selected>
Volume,<Not Selected>
Fraction,<Not Available>
Time,QuadTec 1,QuadTec 2,QuadTec 3,QuadTec 4,Conductivity
     0.0,0.001293,0.001033,0.013426,0.000000,  21.906
     1.0,0.001289,0.001033,0.000000,0.000000,  21.888
     2.0,0.001262,0.001033,0.000000,0.000000,  21.881
     3.0,0.000000,0.000000,0.000000,0.000000,  21.873
     4.0,0.000000,0.000000,0.000000,0.000000,  21.865
     5.0,0.000000,0.000000,0.000003,0.000324,  21.857
     6.0,0.000000,0.000000,-0.000123,0.000235,  21.847
     7.0,0.000722,0.000000,-0.000357,0.000113,  21.838
     8.0,0.000564,0.000551,-0.000443,0.000073,  21.840
     9.0,0.000432,0.000509,-0.000460,0.000087,  21.843
    10.0,0.000367,0.000407,-0.000676,0.000029,  21.859
    11.0,0.000378,0.000350,-0.000654,0.000051,  21.863
    12.0,0.000396,0.000357,-0.000742,0.000078,  21.856
    13.0,0.000419,0.000384,-0.000711,0.000118,  21.859
    14.0,0.000428,0.000410,-0.000913,0.000060,  21.843
    15.0,0.000449,0.000431,-0.000872,0.000096,  21.835
    16.0,0.000481,0.000449,-0.000809,0.000110,  21.819
    17.0,0.000490,0.000470,-0.000801,0.000101,  21.806
    18.0,0.000506,0.000482,-0.001545,0.000137,  21.800
    19.0,0.000518,0.000501,-0.000918,0.000137,  21.804
    20.0,0.000523,0.000519,-0.000908,0.000150,  21.799
    21.0,0.000534,0.000517,-0.000954,0.000150,  21.788
    22.0,0.000544,0.000527,-0.000849,0.000114,  21.789
    23.0,0.000545,0.000533,-0.000577,0.000047,  21.791
    24.0,0.000544,0.000538,-0.000811,0.000074,  21.786
    25.0,0.000514,0.000549,-0.000966,0.000101,  21.795
    26.0,0.000508,0.000530,-0.001147,0.000114,  21.799
    27.0,0.000526,0.000511,-0.001052,0.000114,  21.803
    28.0,0.000533,0.000526,-0.001004,0.000128,  21.808
    29.0,0.000544,0.000533,-0.001113,0.000128,  21.823
    30.0,0.000544,0.000547,-0.000962,0.000106,  21.824
    31.0,0.000548,0.000548,-0.000955,0.000155,  21.826
    32.0,0.000559,0.000565,-0.001085,0.000141,  21.832
    33.0,0.000578,0.000567,-0.001025,0.000155,  21.831
    34.0,0.000593,0.000586,-0.001743,0.000168,  21.838
    35.0,0.000601,0.000594,-0.001368,0.000168,  21.839
    36.0,0.000622,0.000600,-0.001258,0.000110,  21.838
    37.0,0.000627,0.000621,-0.001062,0.000146,  21.837
    38.0,0.000626,0.000631,-0.001066,0.000146,  21.834
    39.0,0.000627,0.000631,-0.001013,0.000146,  21.834
    40.0,0.000633,0.000627,-0.001694,0.000133,  21.832
    41.0,0.000627,0.000625,-0.001251,0.000110,  21.833
    42.0,0.000616,0.000629,-0.001149,0.000146,  21.831
    43.0,0.000630,0.000627,-0.001069,0.000133,  21.826
    44.0,0.000637,0.000625,-0.000984,0.000070,  21.823
    45.0,0.000618,0.000634,-0.001148,0.000106,  21.820
    46.0,0.000598,0.000641,-0.001485,0.000119,  21.813
    47.0,0.000580,0.000641,-0.001368,0.000084,  21.810
    48.0,0.000606,0.000614,-0.001234,0.000119,  21.803
    49.0,0.000614,0.000623,-0.001134,0.000097,  21.793
    50.0,0.000611,0.000618,-0.001169,0.000133,  21.786
    51.0,0.000625,0.000639,-0.001087,0.000155,  21.784
    52.0,0.000627,0.000641,-0.001100,0.000182,  21.778
    53.0,0.000629,0.000645,-0.001203,0.000182,  21.777
    54.0,0.000640,0.000651,-0.001872,0.000182,  21.791
    55.0,0.000651,0.000658,-0.001725,0.000236,  21.802
    56.0,0.000646,0.000674,-0.000233,0.000438,  21.760
    57.0,0.000650,0.000668,0.000677,0.000492,  21.754
    58.0,0.001048,0.000684,0.001157,0.000200,  21.750
    59.0,0.001134,0.001183,-0.000881,0.000092,  21.745
    60.0,0.000952,0.001277,-0.001391,0.000057,  21.738
    61.0,0.000590,0.000883,-0.001466,0.000160,  21.727
    62.0,0.000589,0.000663,-0.000921,0.000321,  21.730
    63.0,0.000676,0.000630,-0.000962,0.000232,  21.729
    64.0,0.000890,0.000679,-0.002124,0.000187,  21.718
    65.0,0.000882,0.000936,-0.001231,0.000146,  21.718
    66.0,0.000771,0.000954,-0.000934,0.000119,  21.724
    67.0,0.000738,0.000840,-0.000976,0.000106,  21.729
    68.0,0.000674,0.000809,-0.001414,0.000084,  21.735
    69.0,0.000644,0.000758,-0.001781,0.000146,  21.737
    70.0,0.000653,0.000731,-0.001362,0.000146,  21.738
    71.0,0.000668,0.000711,-0.001548,0.000110,  21.731
    72.0,0.000679,0.000720,-0.001902,0.000146,  21.732
    73.0,0.000667,0.000717,-0.001524,0.000146,  21.727
    74.0,0.000657,0.000727,-0.001153,0.000124,  21.721
    75.0,0.000663,0.000713,-0.001105,0.000146,  21.710
    76.0,0.000668,0.000712,-0.001110,0.000110,  21.703
    77.0,0.000652,0.000715,-0.001346,0.000146,  21.700
    78.0,0.000658,0.000706,-0.001235,0.000146,  21.697
    79.0,0.000658,0.000697,-0.001476,0.000110,  21.695
    80.0,0.000649,0.000694,-0.001823,0.000173,  21.684
    81.0,0.000658,0.000692,-0.001502,0.000146,  21.680
    82.0,0.000658,0.000686,-0.001010,0.000110,  21.678
    83.0,0.000658,0.000683,-0.001140,0.000146,  21.679
    84.0,0.000655,0.000688,-0.001297,0.000110,  21.680
    85.0,0.000644,0.000688,-0.001390,0.000182,  21.674
    86.0,0.000645,0.000674,-0.001137,0.000133,  21.669
    87.0,0.000661,0.000671,-0.001219,0.000084,  21.671
    88.0,0.000644,0.000680,-0.002419,0.000133,  21.665
    89.0,0.000625,0.000681,-0.001644,0.000133,  21.669
    90.0,0.000622,0.000667,-0.001493,0.000124,  21.659
    91.0,0.000643,0.000654,-0.001370,0.000160,  21.661
    92.0,0.000651,0.000667,-0.001263,0.000160,  21.657
    93.0,0.000671,0.000674,-0.001150,0.000160,  21.661
    94.0,0.000695,0.000692,-0.001134,0.000160,  21.652
    95.0,0.000685,0.000704,-0.002438,0.000124,  21.650
    96.0,0.000677,0.000698,-0.001537,0.000160,  21.650
    97.0,0.000683,0.000688,-0.002973,0.000160,  21.638
    98.0,0.000680,0.000686,-0.002043,0.000151,  21.638
    99.0,0.000690,0.000679,-0.001740,0.000173,  21.638
   100.0,0.000705,0.000700,-0.002961,0.000173,  21.635
   101.0,0.000704,0.000696,-0.001650,0.000151,  21.630
   102.0,0.000703,0.000700,-0.001429,0.000173,  21.628
   103.0,0.000691,0.000694,-0.001302,0.000151,  21.625
   104.0,0.000673,0.000685,-0.001155,0.000160,  21.618
   105.0,0.000663,0.000662,-0.001204,0.000160,  21.614
   106.0,0.000658,0.000660,-0.001690,0.000124,  21.607
   107.0,0.000645,0.000643,-0.001168,0.000133,  21.601
   108.0,0.000658,0.000635,-0.001425,0.000106,  21.598
   109.0,0.000643,0.000634,-0.001208,0.000097,  21.594
   110.0,0.000624,0.000632,-0.000992,0.000133,  21.588
   111.0,0.000610,0.000610,-0.000740,0.000110,  21.581
   112.0,0.000624,0.000592,-0.000537,0.000146,  21.580
   113.0,0.000637,0.000593,-0.000606,0.000160,  21.577
   114.0,0.000655,0.000613,-0.000371,0.000124,  21.577
   115.0,0.000666,0.000620,-0.000249,0.000173,  21.569
   116.0,0.000677,0.000623,-0.000043,0.000187,  21.565
   117.0,0.000691,0.000625,-0.000017,0.000151,  21.561
   118.0,0.000708,0.000638,-0.000318,0.000173,  21.559
   119.0,0.000731,0.000659,0.000438,0.000160,  21.559
   120.0,0.000733,0.000679,0.000782,0.000173,  21.556
   121.0,0.000754,0.000675,0.000921,0.000209,  21.556
   122.0,0.000764,0.000702,0.001172,0.000222,  21.557
   123.0,0.000782,0.000712,0.001595,0.000209,  21.549
   124.0,0.000808,0.000722,0.001075,0.000209,  21.549
   125.0,0.000848,0.000734,0.002042,0.000222,  21.555
   126.0,0.000873,0.000756,0.002566,0.000209,  21.550
   127.0,0.000897,0.000793,0.003278,0.000209,  21.551
   128.0,0.000917,0.000812,0.003963,0.000173,  21.548
   129.0,0.000954,0.000832,0.004533,0.000133,  21.546
   130.0,0.000998,0.000859,0.004944,0.000110,  21.543
   131.0,0.000999,0.000901,0.003719,0.000146,  21.549
   132.0,0.001018,0.000923,0.005412,0.000182,  21.549
   133.0,0.001060,0.000925,0.006214,0.000195,  21.544
   134.0,0.001116,0.000966,0.006781,0.000195,  21.536
   135.0,0.001157,0.001010,0.007579,0.000182,  21.530
   136.0,0.001203,0.001048,0.008422,0.000209,  21.524
   137.0,0.001250,0.001090,0.009011,0.000160,  21.519
   138.0,0.001290,0.001138,0.009790,0.000124,  21.513
   139.0,0.001357,0.001178,0.010220,0.000160,  21.500
   140.0,0.001401,0.001219,0.011171,0.000160,  21.498
   141.0,0.001437,0.001265,0.012018,0.000124,  21.491
   142.0,0.001487,0.001296,0.011624,0.000160,  21.488
   143.0,0.001545,0.001335,0.013345,0.000182,  21.478
   144.0,0.001599,0.001386,0.014398,0.000182,  21.472
   145.0,0.001656,0.001424,0.015534,0.000182,  21.466
   146.0,0.001692,0.001474,0.016452,0.000146,  21.455
   147.0,0.001740,0.001528,0.017409,0.000182,  21.449
   148.0,0.001795,0.001582,0.018356,0.000182,  21.441
   149.0,0.001841,0.001623,0.019335,0.000182,  21.431
   150.0,0.001885,0.001663,0.020402,0.000168,  21.418
   151.0,0.001951,0.001706,0.021269,0.000141,  21.401
   152.0,0.001987,0.001739,0.022181,0.000141,  21.387
   153.0,0.002024,0.001776,0.022925,0.000141,  21.367
   154.0,0.002074,0.001813,0.023649,0.000141,  21.348
   155.0,0.002111,0.001847,0.024336,0.000133,  21.322
   156.0,0.002141,0.001877,0.024151,0.000168,  21.296
   157.0,0.002195,0.001901,0.023949,0.000182,  21.268
   158.0,0.002255,0.001941,0.024848,0.000182,  21.227
   159.0,0.002305,0.001996,0.025539,0.000182,  21.196
   160.0,0.002345,0.002019,0.024445,0.000236,  21.153
   161.0,0.002389,0.002044,0.025506,0.000209,  21.114
   162.0,0.002434,0.002063,0.025281,0.000222,  21.063
   163.0,0.002465,0.002097,0.025339,0.000222,  21.020
   164.0,0.002504,0.002107,0.024775,0.000236,  20.976
   165.0,0.002542,0.002123,0.025184,0.000249,  20.938
   166.0,0.002586,0.002145,0.025223,0.000290,  20.899
   167.0,0.002622,0.002168,0.025286,0.000303,  20.862
   168.0,0.002657,0.002173,0.025283,0.000303,  20.844
   169.0,0.002685,0.002190,0.025208,0.000330,  20.821
   170.0,0.002724,0.002199,0.025503,0.000317,  20.801
   171.0,0.002755,0.002208,0.025728,0.000276,  20.797
   172.0,0.002779,0.002213,0.024563,0.000254,  20.791
   173.0,0.002776,0.002217,0.025407,0.000254,  20.805
   174.0,0.002744,0.002208,0.025846,0.000267,  20.810
   175.0,0.002787,0.002161,0.026061,0.000267,  20.838
   176.0,0.002828,0.002160,0.026753,0.000232,  20.859
   177.0,0.002851,0.002180,0.026395,0.000267,  20.888
   178.0,0.002873,0.002161,0.026398,0.000227,  20.920
   179.0,0.002873,0.002164,0.026921,0.000214,  20.945
   180.0,0.002862,0.002143,0.027574,0.000249,  20.977
   181.0,0.002880,0.002120,0.027301,0.000249,  21.016
   182.0,0.002906,0.002121,0.027431,0.000276,  21.049
   183.0,0.002920,0.002124,0.027495,0.000263,  21.076
   184.0,0.002957,0.002117,0.028409,0.000276,  21.105
   185.0,0.002974,0.002135,0.028442,0.000276,  21.137
   186.0,0.003003,0.002123,0.029018,0.000263,  21.163
   187.0,0.003035,0.002131,0.028828,0.000276,  21.179
   188.0,0.003064,0.002136,0.029641,0.000276,  21.198
   189.0,0.003110,0.002143,0.029930,0.000249,  21.222
   190.0,0.003154,0.002154,0.029843,0.000249,  21.240
   191.0,0.003179,0.002177,0.030745,0.000249,  21.243
   192.0,0.003224,0.002182,0.031087,0.000249,  21.249
   193.0,0.003286,0.002193,0.031005,0.000236,  21.248
   194.0,0.003341,0.002219,0.031472,0.000236,  21.252
   195.0,0.003361,0.002251,0.032144,0.000249,  21.258
   196.0,0.003430,0.002249,0.032203,0.000263,  21.262
   197.0,0.003501,0.002272,0.032553,0.000249,  21.259
   198.0,0.003586,0.002305,0.033273,0.000276,  21.264
   199.0,0.003639,0.002344,0.033667,0.000263,  21.266
   200.0,0.003695,0.002373,0.034250,0.000214,  21.260
   201.0,0.003747,0.002403,0.034516,0.000263,  21.261
   202.0,0.003804,0.002426,0.035265,0.000249,  21.260
   203.0,0.003888,0.002469,0.035930,0.000263,  21.259
   204.0,0.003960,0.002500,0.036445,0.000290,  21.250
   205.0,0.004047,0.002535,0.037125,0.000263,  21.251
   206.0,0.004123,0.002560,0.037054,0.000276,  21.257
   207.0,0.004190,0.002607,0.036980,0.000263,  21.255
   208.0,0.004265,0.002648,0.038597,0.000271,  21.259
   209.0,0.004339,0.002684,0.039641,0.000241,  21.252
   210.0,0.004458,0.002731,0.040405,0.000263,  21.253
   211.0,0.004543,0.002782,0.041264,0.000276,  21.250
   212.0,0.004642,0.002830,0.041977,0.000276,  21.249
   213.0,0.004754,0.002891,0.043135,0.000276,  21.242
   214.0,0.004871,0.002947,0.043393,0.000236,  21.238
   215.0,0.004974,0.003005,0.044468,0.000271,  21.234
   216.0,0.005035,0.003063,0.045682,0.000271,  21.231
   217.0,0.005131,0.003096,0.046808,0.000276,  21.231
   218.0,0.005262,0.003129,0.047402,0.000290,  21.229
   219.0,0.005408,0.003200,0.048030,0.000303,  21.230
   220.0,0.005503,0.003287,0.049178,0.000303,  21.235
   221.0,0.005600,0.003352,0.049977,0.000276,  21.232
   222.0,0.005706,0.003404,0.051010,0.000276,  21.229
   223.0,0.005816,0.003467,0.051855,0.000290,  21.233
   224.0,0.005955,0.003500,0.053216,0.000276,  21.230
   225.0,0.006089,0.003569,0.054159,0.000276,  21.231
   226.0,0.006211,0.003646,0.054637,0.000276,  21.236
   227.0,0.006312,0.003706,0.056069,0.000254,  21.231
   228.0,0.006433,0.003772,0.057294,0.000303,  21.226
   229.0,0.006567,0.003851,0.058686,0.000303,  21.229
   230.0,0.006704,0.003917,0.059749,0.000303,  21.227
   231.0,0.006861,0.003989,0.060864,0.000276,  21.226
   232.0,0.006996,0.004059,0.062026,0.000276,  21.227
   233.0,0.007140,0.004133,0.063376,0.000303,  21.224
   234.0,0.007278,0.004207,0.064895,0.000325,  21.218
   235.0,0.007411,0.004292,0.065569,0.000263,  21.209
   236.0,0.007574,0.004379,0.066349,0.000276,  21.203
   237.0,0.007671,0.004460,0.067418,0.000263,  21.190
   238.0,0.007769,0.004510,0.068907,0.000290,  21.183
   239.0,0.007945,0.004566,0.069643,0.000303,  21.180
   240.0,0.008125,0.004652,0.070840,0.000303,  21.178
   241.0,0.008218,0.004752,0.072154,0.000317,  21.167
   242.0,0.008347,0.004801,0.073464,0.000303,  21.158
   243.0,0.008503,0.004879,0.074764,0.000330,  21.152
   244.0,0.008618,0.004961,0.076100,0.000308,  21.149
   245.0,0.008781,0.005043,0.077311,0.000317,  21.149
   246.0,0.008938,0.005138,0.078418,0.000303,  21.149
   247.0,0.009090,0.005228,0.079805,0.000317,  21.155
   248.0,0.009245,0.005304,0.081067,0.000303,  21.157
   249.0,0.009392,0.005379,0.082310,0.000317,  21.158
   250.0,0.009520,0.005453,0.083857,0.000303,  21.167
   251.0,0.009674,0.005519,0.085209,0.000303,  21.173
   252.0,0.009855,0.005591,0.086429,0.000330,  21.179
   253.0,0.009982,0.005699,0.087341,0.000317,  21.191
   254.0,0.010145,0.005788,0.088730,0.000267,  21.188
   255.0,0.010295,0.005876,0.090054,0.000294,  21.197
   256.0,0.010481,0.005952,0.090720,0.000294,  21.198
   257.0,0.010652,0.006049,0.091833,0.000245,  21.206
   258.0,0.010754,0.006157,0.093398,0.000267,  21.214
   259.0,0.010847,0.006216,0.094770,0.000294,  21.219
   260.0,0.011028,0.006243,0.095069,0.000272,  21.218
   261.0,0.011163,0.006345,0.094996,0.000308,  21.219
   262.0,0.011211,0.006423,0.096803,0.000308,  21.224
   263.0,0.011324,0.006445,0.098733,0.000352,  21.224
   264.0,0.011486,0.006523,0.099783,0.000330,  21.221
   265.0,0.011637,0.006611,0.101417,0.000344,  21.219
   266.0,0.011792,0.006706,0.102817,0.000344,  21.227
   267.0,0.011970,0.006786,0.103819,0.000308,  21.220
   268.0,0.012110,0.006873,0.104823,0.000272,  21.218
   269.0,0.012242,0.006932,0.105044,0.000294,  21.212
   270.0,0.012388,0.007002,0.106915,0.000330,  21.213
   271.0,0.012472,0.007080,0.108766,0.000321,  21.212
   272.0,0.012611,0.007141,0.109774,0.000330,  21.211
   273.0,0.012791,0.007216,0.110849,0.000344,  21.211
   274.0,0.012937,0.007318,0.112043,0.000344,  21.217
   275.0,0.013070,0.007390,0.113340,0.000317,  21.214
   276.0,0.013213,0.007474,0.114297,0.000344,  21.211
   277.0,0.013362,0.007536,0.114738,0.000330,  21.214
   278.0,0.013507,0.007608,0.115482,0.000303,  21.211
   279.0,0.013596,0.007695,0.116898,0.000330,  21.212
   280.0,0.013601,0.007751,0.117024,0.000317,  21.212
   281.0,0.013737,0.007759,0.117296,0.000294,  21.212
   282.0,0.013869,0.007847,0.118284,0.000330,  21.213
   283.0,0.013865,0.007906,0.119616,0.000344,  21.211
   284.0,0.013941,0.007895,0.121039,0.000344,  21.208
   285.0,0.014103,0.007953,0.122244,0.000344,  21.207
   286.0,0.014269,0.008031,0.123247,0.000321,  21.201
   287.0,0.014388,0.008119,0.124106,0.000299,  21.198
   288.0,0.014534,0.008175,0.124873,0.000321,  21.198
   289.0,0.014619,0.008263,0.125774,0.000321,  21.198
   290.0,0.014721,0.008333,0.126403,0.000321,  21.196
   291.0,0.014814,0.008380,0.126952,0.000344,  21.196
   292.0,0.014926,0.008437,0.128104,0.000357,  21.198
   293.0,0.015005,0.008479,0.128772,0.000357,  21.197
   294.0,0.015148,0.008529,0.129789,0.000357,  21.190
   295.0,0.015267,0.008605,0.130885,0.000371,  21.185
   296.0,0.015337,0.008678,0.131905,0.000357,  21.187
   297.0,0.015423,0.008708,0.132387,0.000357,  21.186
   298.0,0.015513,0.008777,0.132966,0.000357,  21.183
   299.0,0.015626,0.008810,0.132888,0.000330,  21.179
   300.0,0.015673,0.008868,0.133479,0.000344,  21.174
   301.0,0.015652,0.008905,0.134425,0.000330,  21.176
   302.0,0.015743,0.008887,0.132683,0.000344,  21.177
   303.0,0.015788,0.008927,0.133114,0.000371,  21.179
   304.0,0.015710,0.008967,0.134473,0.000371,  21.181
   305.0,0.015732,0.008929,0.135586,0.000406,  21.181
   306.0,0.015847,0.008913,0.136180,0.000371,  21.181
   307.0,0.015959,0.008985,0.137236,0.000384,  21.182
   308.0,0.016066,0.009059,0.137226,0.000398,  21.182
   309.0,0.016143,0.009104,0.137854,0.000384,  21.178
   310.0,0.016214,0.009153,0.136832,0.000371,  21.177
   311.0,0.016249,0.009183,0.137713,0.000371,  21.184
   312.0,0.016261,0.009190,0.138182,0.000344,  21.184
   313.0,0.016321,0.009212,0.139420,0.000344,  21.184
   314.0,0.016340,0.009262,0.140252,0.000344,  21.182
   315.0,0.016455,0.009260,0.140201,0.000357,  21.180
   316.0,0.016511,0.009318,0.140653,0.000344,  21.176
   317.0,0.016526,0.009351,0.140952,0.000379,  21.179
   318.0,0.016588,0.009359,0.141277,0.000366,  21.171
   319.0,0.016578,0.009385,0.141277,0.000344,  21.172
   320.0,0.016652,0.009400,0.141021,0.000366,  21.172
   321.0,0.016685,0.009435,0.141064,0.000366,  21.172
   322.0,0.016591,0.009445,0.141209,0.000344,  21.167
   323.0,0.016591,0.009413,0.139203,0.000330,  21.173
   324.0,0.016631,0.009397,0.138635,0.000308,  21.169
   325.0,0.016513,0.009399,0.139665,0.000344,  21.167
   326.0,0.016390,0.009327,0.140082,0.000321,  21.161
   327.0,0.016491,0.009277,0.140335,0.000299,  21.157
   328.0,0.016565,0.009333,0.140956,0.000321,  21.160
   329.0,0.016640,0.009391,0.141515,0.000357,  21.157
   330.0,0.016669,0.009445,0.141429,0.000371,  21.157
   331.0,0.016698,0.009440,0.140844,0.000357,  21.154
   332.0,0.016688,0.009458,0.140036,0.000357,  21.149
   333.0,0.016640,0.009454,0.139804,0.000357,  21.149
   334.0,0.016656,0.009414,0.140728,0.000371,  21.143
   335.0,0.016585,0.009429,0.140560,0.000371,  21.143
   336.0,0.016633,0.009408,0.140388,0.000384,  21.143
   337.0,0.016695,0.009432,0.140532,0.000371,  21.137
   338.0,0.016663,0.009444,0.140424,0.000371,  21.142
   339.0,0.016636,0.009429,0.140537,0.000357,  21.139
   340.0,0.016602,0.009427,0.140018,0.000357,  21.139
   341.0,0.016615,0.009399,0.139543,0.000344,  21.135
   342.0,0.016588,0.009409,0.139063,0.000344,  21.136
   343.0,0.016508,0.009396,0.138932,0.000321,  21.131
   344.0,0.016390,0.009347,0.137540,0.000330,  21.126
   345.0,0.016413,0.009278,0.135320,0.000344,  21.118
   346.0,0.016249,0.009289,0.134424,0.000344,  21.119
   347.0,0.016037,0.009177,0.136049,0.000344,  21.118
   348.0,0.016108,0.009076,0.135792,0.000344,  21.114
   349.0,0.016142,0.009126,0.136219,0.000344,  21.110
   350.0,0.016168,0.009153,0.136505,0.000344,  21.111
   351.0,0.016140,0.009171,0.135308,0.000344,  21.114
   352.0,0.016139,0.009155,0.135007,0.000308,  21.108
   353.0,0.016089,0.009147,0.134546,0.000344,  21.109
   354.0,0.016013,0.009111,0.133982,0.000344,  21.103
   355.0,0.015957,0.009071,0.133596,0.000330,  21.099
   356.0,0.015870,0.009041,0.134002,0.000330,  21.098
   357.0,0.015875,0.008991,0.132722,0.000344,  21.096
   358.0,0.015893,0.009001,0.132274,0.000344,  21.096
   359.0,0.015839,0.009017,0.132142,0.000344,  21.096
   360.0,0.015769,0.008987,0.130233,0.000344,  21.095
   361.0,0.015732,0.008939,0.130843,0.000317,  21.093
   362.0,0.015664,0.008910,0.130563,0.000303,  21.089
   363.0,0.015613,0.008868,0.129471,0.000303,  21.083
   364.0,0.015507,0.008851,0.129093,0.000303,  21.089
   365.0,0.015341,0.008792,0.127830,0.000303,  21.086
   366.0,0.015287,0.008704,0.125293,0.000303,  21.085
   367.0,0.015133,0.008681,0.125323,0.000317,  21.083
   368.0,0.014899,0.008614,0.125707,0.000344,  21.083
   369.0,0.014913,0.008466,0.125734,0.000317,  21.087
   370.0,0.014951,0.008473,0.125623,0.000294,  21.077
   371.0,0.014929,0.008494,0.125177,0.000330,  21.080
   372.0,0.014873,0.008486,0.124510,0.000317,  21.075
   373.0,0.014847,0.008467,0.122321,0.000317,  21.073
   374.0,0.014786,0.008451,0.122158,0.000317,  21.071
   375.0,0.014691,0.008413,0.120544,0.000317,  21.068
   376.0,0.014584,0.008360,0.120659,0.000317,  21.073
   377.0,0.014489,0.008294,0.120825,0.000330,  21.070
   378.0,0.014401,0.008244,0.120207,0.000294,  21.076
   379.0,0.014399,0.008191,0.119160,0.000330,  21.072
   380.0,0.014366,0.008185,0.118411,0.000330,  21.074
   381.0,0.014227,0.008168,0.117623,0.000344,  21.078
   382.0,0.014142,0.008087,0.116694,0.000344,  21.073
   383.0,0.014071,0.008050,0.116164,0.000330,  21.072
   384.0,0.013990,0.008005,0.115348,0.000317,  21.074
   385.0,0.013863,0.007980,0.114429,0.000352,  21.075
   386.0,0.013707,0.007925,0.113227,0.000352,  21.074
   387.0,0.013643,0.007832,0.110392,0.000339,  21.076
   388.0,0.013518,0.007772,0.109877,0.000352,  21.075
   389.0,0.013252,0.007701,0.110382,0.000317,  21.076
   390.0,0.013169,0.007542,0.109968,0.000366,  21.079
   391.0,0.013212,0.007521,0.109335,0.000366,  21.078
   392.0,0.013180,0.007545,0.109000,0.000344,  21.077
   393.0,0.013129,0.007526,0.108485,0.000366,  21.075
   394.0,0.013055,0.007496,0.107078,0.000366,  21.082
   395.0,0.012981,0.007462,0.106113,0.000344,  21.077
   396.0,0.012918,0.007431,0.105129,0.000366,  21.074
   397.0,0.012766,0.007371,0.104077,0.000344,  21.077
   398.0,0.012671,0.007288,0.104226,0.000379,  21.081
   399.0,0.012557,0.007241,0.103818,0.000344,  21.078
   400.0,0.012522,0.007165,0.102426,0.000344,  21.083
   401.0,0.012464,0.007169,0.101432,0.000330,  21.083
   402.0,0.012348,0.007141,0.100797,0.000330,  21.085
   403.0,0.012245,0.007079,0.100153,0.000330,  21.084
   404.0,0.012150,0.007018,0.099129,0.000352,  21.082
   405.0,0.012084,0.006979,0.098151,0.000339,  21.086
   406.0,0.011977,0.006935,0.097027,0.000339,  21.084
   407.0,0.011824,0.006874,0.096138,0.000339,  21.082
   408.0,0.011705,0.006790,0.092051,0.000303,  21.078
   409.0,0.011574,0.006715,0.092224,0.000330,  21.083
   410.0,0.011316,0.006632,0.092901,0.000317,  21.086
   411.0,0.011241,0.006513,0.092073,0.000330,  21.078
   412.0,0.011289,0.006455,0.090776,0.000330,  21.081
   413.0,0.011240,0.006480,0.090256,0.000294,  21.076
   414.0,0.011182,0.006467,0.090452,0.000303,  21.076
   415.0,0.011106,0.006426,0.089565,0.000303,  21.073
   416.0,0.011025,0.006385,0.088565,0.000303,  21.074
   417.0,0.010914,0.006351,0.087712,0.000303,  21.072
   418.0,0.010788,0.006281,0.086083,0.000312,  21.071
   419.0,0.010681,0.006227,0.085976,0.000303,  21.067
   420.0,0.010544,0.006164,0.085542,0.000339,  21.069
   421.0,0.010505,0.006099,0.084496,0.000339,  21.072
   422.0,0.010468,0.006069,0.083427,0.000303,  21.076
   423.0,0.010363,0.006042,0.082798,0.000339,  21.075
   424.0,0.010255,0.005990,0.082072,0.000303,  21.074
   425.0,0.010159,0.005924,0.081468,0.000339,  21.068
   426.0,0.010058,0.005867,0.080640,0.000312,  21.070
   427.0,0.009962,0.005810,0.079769,0.000290,  21.065
   428.0,0.009816,0.005782,0.078630,0.000339,  21.068
   429.0,0.009701,0.005711,0.076540,0.000312,  21.071
   430.0,0.009614,0.005629,0.075437,0.000325,  21.074
   431.0,0.009443,0.005576,0.075814,0.000325,  21.073
   432.0,0.009298,0.005455,0.075439,0.000303,  21.073
   433.0,0.009311,0.005397,0.074841,0.000339,  21.073
   434.0,0.009297,0.005420,0.073141,0.000325,  21.066
   435.0,0.009222,0.005394,0.072972,0.000303,  21.060
   436.0,0.009146,0.005361,0.071713,0.000339,  21.062
   437.0,0.009079,0.005343,0.071550,0.000325,  21.059
   438.0,0.008981,0.005293,0.069437,0.000303,  21.060
   439.0,0.008876,0.005237,0.067929,0.000339,  21.055
   440.0,0.008783,0.005182,0.068519,0.000312,  21.055
   441.0,0.008654,0.005121,0.068676,0.000339,  21.056
   442.0,0.008571,0.005056,0.068178,0.000325,  21.059
   443.0,0.008538,0.005011,0.067184,0.000303,  21.054
   444.0,0.008470,0.004999,0.066483,0.000303,  21.058
   445.0,0.008357,0.004952,0.065453,0.000290,  21.064
   446.0,0.008276,0.004905,0.064874,0.000303,  21.056
   447.0,0.008175,0.004855,0.063720,0.000290,  21.056
   448.0,0.008101,0.004804,0.063311,0.000276,  21.060
   449.0,0.008009,0.004761,0.062329,0.000254,  21.057
   450.0,0.007897,0.004701,0.061231,0.000276,  21.056
   451.0,0.007810,0.004629,0.059719,0.000276,  21.056
   452.0,0.007665,0.004588,0.059990,0.000290,  21.056
   453.0,0.007525,0.004501,0.059785,0.000290,  21.058
   454.0,0.007526,0.004426,0.059124,0.000303,  21.050
   455.0,0.007504,0.004427,0.058602,0.000303,  21.051
   456.0,0.007435,0.004430,0.057995,0.000290,  21.052
   457.0,0.007373,0.004384,0.057332,0.000303,  21.053
   458.0,0.007323,0.004360,0.056575,0.000290,  21.051
   459.0,0.007244,0.004322,0.055323,0.000290,  21.044
   460.0,0.007155,0.004291,0.054649,0.000290,  21.043
   461.0,0.007048,0.004230,0.053602,0.000276,  21.042
   462.0,0.006946,0.004165,0.053505,0.000276,  21.045
   463.0,0.006846,0.004100,0.052872,0.000312,  21.043
   464.0,0.006817,0.004059,0.052138,0.000312,  21.042
   465.0,0.006771,0.004047,0.051391,0.000276,  21.040
   466.0,0.006682,0.004012,0.050749,0.000298,  21.040
   467.0,0.006613,0.003967,0.050267,0.000312,  21.034
   468.0,0.006548,0.003931,0.049833,0.000312,  21.031
   469.0,0.006481,0.003889,0.049299,0.000271,  21.030
   470.0,0.006377,0.003855,0.047116,0.000249,  21.030
   471.0,0.006275,0.003813,0.046395,0.000285,  21.034
   472.0,0.006194,0.003767,0.045740,0.000271,  21.030
   473.0,0.006082,0.003712,0.045794,0.000249,  21.036
   474.0,0.005943,0.003652,0.045828,0.000298,  21.033
   475.0,0.005948,0.003564,0.045328,0.000285,  21.036
   476.0,0.005958,0.003562,0.044935,0.000263,  21.041
   477.0,0.005914,0.003567,0.044548,0.000298,  21.040
   478.0,0.005864,0.003544,0.044126,0.000263,  21.043
   479.0,0.005780,0.003521,0.043473,0.000298,  21.039
   480.0,0.005728,0.003479,0.042726,0.000298,  21.036
   481.0,0.005657,0.003452,0.040543,0.000249,  21.036
   482.0,0.005573,0.003410,0.040764,0.000271,  21.038
   483.0,0.005512,0.003371,0.040744,0.000271,  21.039
   484.0,0.005435,0.003333,0.040401,0.000271,  21.035
   485.0,0.005405,0.003292,0.039840,0.000285,  21.037
   486.0,0.005359,0.003262,0.039159,0.000276,  21.036
   487.0,0.005290,0.003242,0.038709,0.000298,  21.046
   488.0,0.005219,0.003206,0.038294,0.000285,  21.037
   489.0,0.005164,0.003164,0.037958,0.000249,  21.037
   490.0,0.005102,0.003153,0.037487,0.000258,  21.037
   491.0,0.005045,0.003118,0.036837,0.000271,  21.038
   492.0,0.004953,0.003088,0.035900,0.000249,  21.033
   493.0,0.004904,0.003039,0.034932,0.000285,  21.036
   494.0,0.004825,0.002996,0.034800,0.000276,  21.035
   495.0,0.004707,0.002960,0.034789,0.000312,  21.036
   496.0,0.004679,0.002903,0.034214,0.000298,  21.040
   497.0,0.004684,0.002877,0.033703,0.000276,  21.047
   498.0,0.004651,0.002880,0.033367,0.000298,  21.041
   499.0,0.004609,0.002869,0.033166,0.000271,  21.046
   500.0,0.004554,0.002847,0.032812,0.000249,  21.049
   501.0,0.004513,0.002813,0.031979,0.000271,  21.049
   502.0,0.004458,0.002789,0.031504,0.000236,  21.048
   503.0,0.004400,0.002759,0.030938,0.000285,  21.048
   504.0,0.004336,0.002718,0.030613,0.000285,  21.042
   505.0,0.004271,0.002688,0.030367,0.000249,  21.047
   506.0,0.004237,0.002660,0.029991,0.000263,  21.047
   507.0,0.004212,0.002639,0.029375,0.000249,  21.052
   508.0,0.004148,0.002624,0.028603,0.000263,  21.054
   509.0,0.004100,0.002589,0.027707,0.000298,  21.059
   510.0,0.004066,0.002566,0.027780,0.000312,  21.054
   511.0,0.004012,0.002549,0.027730,0.000285,  21.052
   512.0,0.003967,0.002525,0.027374,0.000271,  21.052
   513.0,0.003896,0.002500,0.026802,0.000249,  21.052
   514.0,0.003847,0.002456,0.025909,0.000298,  21.048
   515.0,0.003802,0.002423,0.025660,0.000285,  21.051
   516.0,0.003719,0.002401,0.025109,0.000249,  21.052
   517.0,0.003676,0.002365,0.025120,0.000298,  21.055
   518.0,0.003687,0.002339,0.024894,0.000285,  21.050
   519.0,0.003676,0.002341,0.024718,0.000249,  21.049
   520.0,0.003627,0.002326,0.024401,0.000285,  21.046
   521.0,0.003587,0.002301,0.023295,0.000236,  21.051
   522.0,0.003551,0.002279,0.023385,0.000285,  21.046
   523.0,0.003508,0.002255,0.022381,0.000285,  21.046
   524.0,0.003460,0.002224,0.022503,0.000249,  21.053
   525.0,0.003406,0.002210,0.022429,0.000285,  21.050
   526.0,0.003365,0.002192,0.022117,0.000294,  21.057
   527.0,0.003331,0.002159,0.021898,0.000271,  21.052
   528.0,0.003305,0.002151,0.021399,0.000285,  21.062
   529.0,0.003276,0.002124,0.021107,0.000249,  21.063
   530.0,0.003224,0.002112,0.020317,0.000271,  21.069
   531.0,0.003185,0.002079,0.020392,0.000271,  21.065
   532.0,0.003149,0.002058,0.020161,0.000236,  21.062
   533.0,0.003099,0.002039,0.020057,0.000258,  21.069
   534.0,0.003052,0.002026,0.019442,0.000258,  21.066
   535.0,0.002999,0.002007,0.018750,0.000222,  21.070
   536.0,0.002989,0.001961,0.018451,0.000271,  21.072
   537.0,0.002936,0.001938,0.018357,0.000249,  21.077
   538.0,0.002886,0.001915,0.018324,0.000298,  21.075
   539.0,0.002892,0.001882,0.017864,0.000285,  21.080
   540.0,0.002888,0.001902,0.017619,0.000236,  21.084
   541.0,0.002854,0.001899,0.017460,0.000280,  21.086
   542.0,0.002823,0.001882,0.017388,0.000258,  21.091
   543.0,0.002786,0.001863,0.016235,0.000249,  21.096
   544.0,0.002758,0.001860,0.015791,0.000263,  21.094
   545.0,0.002735,0.001842,0.016009,0.000236,  21.090
   546.0,0.002695,0.001810,0.015948,0.000258,  21.093
   547.0,0.002658,0.001794,0.015995,0.000271,  21.094
   548.0,0.002637,0.001765,0.014559,0.000249,  21.092
   549.0,0.002609,0.001763,0.014726,0.000271,  21.092
   550.0,0.002603,0.001743,0.014688,0.000271,  21.086
   551.0,0.002560,0.001744,0.014697,0.000236,  21.092
   552.0,0.002532,0.001710,0.014632,0.000222,  21.080
   553.0,0.002520,0.001693,0.014541,0.000209,  21.080
   554.0,0.002483,0.001689,0.014411,0.000187,  21.078
   555.0,0.002455,0.001685,0.014090,0.000258,  21.084
   556.0,0.002400,0.001669,0.013770,0.000222,  21.084
   557.0,0.002382,0.001634,0.013291,0.000271,  21.086
   558.0,0.002351,0.001611,0.013226,0.000271,  21.091
   559.0,0.002314,0.001605,0.013203,0.000249,  21.089
   560.0,0.002322,0.001591,0.012996,0.000285,  21.093
   561.0,0.002321,0.001582,0.012328,0.000285,  21.093
   562.0,0.002300,0.001587,0.012577,0.000249,  21.091
   563.0,0.002279,0.001573,0.012378,0.000271,  21.096
   564.0,0.002252,0.001557,0.012334,0.000236,  21.097
   565.0,0.002218,0.001562,0.012086,0.000236,  21.102
   566.0,0.002193,0.001539,0.011679,0.000271,  21.099
   567.0,0.002169,0.001520,0.011530,0.000249,  21.100
   568.0,0.002143,0.001512,0.011397,0.000298,  21.100
   569.0,0.002132,0.001492,0.011217,0.000271,  21.102
   570.0,0.002104,0.001487,0.011092,0.000249,  21.104
   571.0,0.002090,0.001471,0.010635,0.000298,  21.110
   572.0,0.002069,0.001457,0.010650,0.000214,  21.116
   573.0,0.002037,0.001446,0.010401,0.000236,  21.116
   574.0,0.002025,0.001432,0.010226,0.000209,  21.113
   575.0,0.002006,0.001431,0.010022,0.000195,  21.119
   576.0,0.001975,0.001412,0.009317,0.000222,  21.120
   577.0,0.001940,0.001409,0.009469,0.000222,  21.118
   578.0,0.001933,0.001390,0.009187,0.000222,  21.117
   579.0,0.001898,0.001369,0.009394,0.000236,  21.121
   580.0,0.001875,0.001353,0.009361,0.000236,  21.117
   581.0,0.001870,0.001353,0.008832,0.000236,  21.125
   582.0,0.001875,0.001347,0.008985,0.000236,  21.122
   583.0,0.001861,0.001343,0.008999,0.000249,  21.121
   584.0,0.001849,0.001346,0.009052,0.000236,  21.116
   585.0,0.001834,0.001331,0.008763,0.000222,  21.119
   586.0,0.001805,0.001326,0.008250,0.000236,  21.116
   587.0,0.001780,0.001323,0.007597,0.000258,  21.112
   588.0,0.001774,0.001300,0.007745,0.000271,  21.117
   589.0,0.001739,0.001288,0.008251,0.000249,  21.115
   590.0,0.001729,0.001277,0.007943,0.000236,  21.118
   591.0,0.001724,0.001269,0.007792,0.000249,  21.121
   592.0,0.001719,0.001266,0.006861,0.000263,  21.125
   593.0,0.001710,0.001259,0.006783,0.000249,  21.126
   594.0,0.001692,0.001251,0.007025,0.000249,  21.124
   595.0,0.001670,0.001242,0.007087,0.000222,  21.125
   596.0,0.001674,0.001229,0.007170,0.000195,  21.123
   597.0,0.001647,0.001242,0.007002,0.000195,  21.126
   598.0,0.001612,0.001226,0.005657,0.000258,  21.123
   599.0,0.001593,0.001213,0.006040,0.000222,  21.130
   600.0,0.001582,0.001186,0.006263,0.000244,  21.126
   601.0,0.001571,0.001181,0.006392,0.000222,  21.127
   602.0,0.001561,0.001169,0.006142,0.000222,  21.130
   603.0,0.001556,0.001169,0.005820,0.000222,  21.129
   604.0,0.001549,0.001169,0.005357,0.000222,  21.133
   605.0,0.001543,0.001165,0.005694,0.000222,  21.135
   606.0,0.001525,0.001162,0.005908,0.000222,  21.136
   607.0,0.001511,0.001153,0.005823,0.000244,  21.136
   608.0,0.001493,0.001152,0.005747,0.000271,  21.142
   609.0,0.001490,0.001140,0.005533,0.000244,  21.138
   610.0,0.001479,0.001134,0.005058,0.000222,  21.147
   611.0,0.001463,0.001135,0.005400,0.000209,  21.149
   612.0,0.001459,0.001125,0.005307,0.000209,  21.147
   613.0,0.001443,0.001123,0.005232,0.000187,  21.153
   614.0,0.001426,0.001107,0.005070,0.000209,  21.152
   615.0,0.001419,0.001103,0.005006,0.000222,  21.158
   616.0,0.001407,0.001102,0.005344,0.000222,  21.155
   617.0,0.001405,0.001093,0.005119,0.000222,  21.152
   618.0,0.001394,0.001090,0.004972,0.000195,  21.154
   619.0,0.001363,0.001093,0.004701,0.000231,  21.162
   620.0,0.001347,0.001081,0.004450,0.000222,  21.158
   621.0,0.001342,0.001050,0.004434,0.000222,  21.165
   622.0,0.001326,0.001041,0.004379,0.000222,  21.172
   623.0,0.001324,0.001038,0.004503,0.000236,  21.170
   624.0,0.001326,0.001039,0.004363,0.000236,  21.176
   625.0,0.001326,0.001037,0.003392,0.000222,  21.177
   626.0,0.001321,0.001042,0.003823,0.000187,  21.173
   627.0,0.001316,0.001041,0.004059,0.000222,  21.175
   628.0,0.001308,0.001035,0.003705,0.000236,  21.174
   629.0,0.001293,0.001040,0.003600,0.000222,  21.179
   630.0,0.001288,0.001028,0.003623,0.000271,  21.175
   631.0,0.001280,0.001020,0.003710,0.000271,  21.178
   632.0,0.001272,0.001020,0.003744,0.000249,  21.186
   633.0,0.001264,0.001018,0.003675,0.000271,  21.183
   634.0,0.001259,0.001022,0.003649,0.000271,  21.185
   635.0,0.001244,0.001020,0.003508,0.000236,  21.187
   636.0,0.001239,0.001018,0.003470,0.000258,  21.189
   637.0,0.001228,0.001005,0.003606,0.000222,  21.186
   638.0,0.001217,0.001000,0.002201,0.000231,  21.182
   639.0,0.001207,0.000984,0.002989,0.000231,  21.181
   640.0,0.001196,0.000994,0.001369,0.000222,  21.181
   641.0,0.001173,0.000990,0.002486,0.000258,  21.181
   642.0,0.001174,0.000973,0.002309,0.000222,  21.185
   643.0,0.001179,0.000968,0.002580,0.000222,  21.187
   644.0,0.001177,0.000963,0.002903,0.000222,  21.186
   645.0,0.001171,0.000958,0.002806,0.000236,  21.191
   646.0,0.001168,0.000960,0.002758,0.000236,  21.190
   647.0,0.001166,0.000960,0.001959,0.000236,  21.192
   648.0,0.001159,0.000951,0.001736,0.000249,  21.191
   649.0,0.001156,0.000951,0.002359,0.000236,  21.194
   650.0,0.001154,0.000952,0.002521,0.000236,  21.196
   651.0,0.001146,0.000964,0.001933,0.000236,  21.204
   652.0,0.001141,0.000945,0.002174,0.000271,  21.205
   653.0,0.001132,0.000951,0.002555,0.000227,  21.206
   654.0,0.001132,0.000947,0.002127,0.000263,  21.208
   655.0,0.001130,0.000946,0.002233,0.000249,  21.211
   656.0,0.001125,0.000952,0.002394,0.000249,  21.215
   657.0,0.001116,0.000940,0.002255,0.000236,  21.216
   658.0,0.001109,0.000928,0.001734,0.000236,  21.213
   659.0,0.001096,0.000933,0.000347,0.000236,  21.216
   660.0,0.001093,0.000917,0.001611,0.000195,  21.214
   661.0,0.001079,0.000913,0.001939,0.000222,  21.216
   662.0,0.001055,0.000917,0.001321,0.000236,  21.214
   663.0,0.001058,0.000897,0.001687,0.000236,  21.216
   664.0,0.001058,0.000893,0.001760,0.000249,  21.218
   665.0,0.001052,0.000896,0.001847,0.000236,  21.218
   666.0,0.001053,0.000893,0.001911,0.000249,  21.221
   667.0,0.001055,0.000902,0.001760,0.000249,  21.220
   668.0,0.001048,0.000903,0.001736,0.000249,  21.220
   669.0,0.001051,0.000887,-0.000191,0.000258,  21.221
   670.0,0.001051,0.000897,0.001007,0.000236,  21.217
   671.0,0.001042,0.000894,0.001635,0.000271,  21.219
   672.0,0.001028,0.000898,0.001172,0.000271,  21.222
   673.0,0.001024,0.000883,0.001383,0.000258,  21.221
   674.0,0.001028,0.000878,0.001533,0.000236,  21.222
   675.0,0.001028,0.000877,0.001497,0.000249,  21.218
   676.0,0.001014,0.000885,0.001074,0.000236,  21.217
   677.0,0.001012,0.000885,0.001166,0.000258,  21.214
   678.0,0.001005,0.000870,0.001120,0.000222,  21.219
   679.0,0.001013,0.000877,0.001296,0.000244,  21.215
   680.0,0.001005,0.000869,0.001262,0.000244,  21.214
   681.0,0.001001,0.000862,0.001198,0.000258,  21.219
   682.0,0.000996,0.000869,0.001116,0.000222,  21.218
   683.0,0.000973,0.000881,0.000806,0.000222,  21.222
   684.0,0.000962,0.000862,0.000439,0.000222,  21.217
   685.0,0.000968,0.000840,0.000777,0.000222,  21.216
   686.0,0.000965,0.000840,0.000940,0.000209,  21.222
   687.0,0.000980,0.000845,0.000893,0.000222,  21.223
   688.0,0.000978,0.000866,0.000921,0.000271,  21.231
   689.0,0.000983,0.000860,0.001006,0.000249,  21.230
   690.0,0.000988,0.000853,0.000922,0.000271,  21.223
   691.0,0.000986,0.000855,0.000845,0.000222,  21.220
   692.0,0.000969,0.000857,0.000978,0.000271,  21.222
   693.0,0.000957,0.000864,0.000843,0.000271,  21.223
   694.0,0.000937,0.000846,0.000698,0.000249,  21.229
   695.0,0.000940,0.000844,-0.000659,0.000271,  21.230
   696.0,0.000946,0.000835,0.000093,0.000258,  21.233
   697.0,0.000956,0.000836,0.000442,0.000222,  21.233
   698.0,0.000944,0.000837,0.000489,0.000258,  21.237
   699.0,0.000936,0.000830,0.000605,0.000258,  21.243
   700.0,0.000939,0.000827,0.000620,0.000258,  21.242
   701.0,0.000937,0.000832,0.000771,0.000258,  21.241
   702.0,0.000939,0.000829,0.000345,0.000209,  21.240
   703.0,0.000936,0.000833,0.000435,0.000231,  21.240
   704.0,0.000921,0.000847,0.000571,0.000231,  21.249
   705.0,0.000903,0.000835,0.000449,0.000222,  21.242
   706.0,0.000907,0.000814,0.000525,0.000258,  21.247
   707.0,0.000913,0.000805,0.000495,0.000258,  21.251
   708.0,0.000921,0.000813,0.000528,0.000222,  21.256
   709.0,0.000913,0.000828,0.000279,0.000271,  21.263
   710.0,0.000916,0.000828,0.000088,0.000249,  21.258
   711.0,0.000907,0.000819,0.000145,0.000271,  21.263
   712.0,0.000919,0.000809,0.000302,0.000244,  21.262
   713.0,0.000912,0.000817,-0.001153,0.000222,  21.262
   714.0,0.000894,0.000819,-0.000141,0.000258,  21.268
   715.0,0.000900,0.000821,0.000079,0.000258,  21.264
   716.0,0.000896,0.000808,0.000234,0.000258,  21.271
   717.0,0.000900,0.000810,0.000323,0.000258,  21.272
   718.0,0.000894,0.000809,0.000329,0.000222,  21.270
   719.0,0.000899,0.000811,0.000453,0.000271,  21.276
   720.0,0.000900,0.000811,-0.000086,0.000222,  21.278
   721.0,0.000898,0.000805,-0.000138,0.000236,  21.279
   722.0,0.000888,0.000810,0.000002,0.000236,  21.270
   723.0,0.000895,0.000809,0.000253,0.000222,  21.272
   724.0,0.000894,0.000808,0.000298,0.000222,  21.270
   725.0,0.000879,0.000816,0.000282,0.000209,  21.266
   726.0,0.000864,0.000808,0.000102,0.000222,  21.272
   727.0,0.000867,0.000786,0.000290,0.000244,  21.274
   728.0,0.000881,0.000784,0.000177,0.000258,  21.269
   729.0,0.000893,0.000797,0.000198,0.000236,  21.269
   730.0,0.000887,0.000810,0.000116,0.000236,  21.269
   731.0,0.000898,0.000813,0.000086,0.000236,  21.275
   732.0,0.000895,0.000809,-0.000862,0.000249,  21.267
   733.0,0.000899,0.000803,-0.000103,0.000209,  21.273
   734.0,0.000896,0.000806,-0.000326,0.000187,  21.273
   735.0,0.000890,0.000802,-0.000079,0.000209,  21.274
   736.0,0.000883,0.000802,-0.000001,0.000236,  21.284
   737.0,0.000880,0.000794,-0.000301,0.000249,  21.274
   738.0,0.000880,0.000795,-0.000517,0.000271,  21.275
   739.0,0.000886,0.000797,-0.000239,0.000271,  21.283
   740.0,0.000888,0.000806,0.000022,0.000249,  21.279
   741.0,0.000897,0.000814,0.000017,0.000271,  21.286
   742.0,0.000891,0.000816,0.000055,0.000271,  21.286
   743.0,0.000891,0.000820,-0.000561,0.000271,  21.288
   744.0,0.000886,0.000814,-0.000139,0.000258,  21.291
   745.0,0.000876,0.000805,0.000082,0.000222,  21.293
   746.0,0.000861,0.000808,-0.000053,0.000258,  21.296
   747.0,0.000843,0.000803,-0.000146,0.000258,  21.294
   748.0,0.000845,0.000789,-0.000293,0.000236,  21.296
   749.0,0.000847,0.000786,-0.000560,0.000258,  21.298
   750.0,0.000859,0.000785,-0.000283,0.000222,  21.295
   751.0,0.000872,0.000792,-0.000318,0.000236,  21.295
   752.0,0.000867,0.000795,-0.000423,0.000249,  21.301
   753.0,0.000867,0.000787,-0.000311,0.000249,  21.296
   754.0,0.000866,0.000796,-0.000042,0.000249,  21.298
   755.0,0.000875,0.000808,-0.000366,0.000236,  21.293
   756.0,0.000882,0.000800,-0.000297,0.000249,  21.293
   757.0,0.000866,0.000824,-0.000576,0.000236,  21.298
   758.0,0.000872,0.000796,-0.000272,0.000222,  21.298
   759.0,0.000867,0.000794,-0.000942,0.000222,  21.294
   760.0,0.000862,0.000795,-0.000141,0.000222,  21.291
   761.0,0.000858,0.000793,-0.000711,0.000187,  21.295
   762.0,0.000853,0.000793,-0.000271,0.000222,  21.296
   763.0,0.000857,0.000792,-0.000284,0.000236,  21.298
   764.0,0.000857,0.000786,-0.000134,0.000249,  21.305
   765.0,0.000851,0.000783,-0.000084,0.000222,  21.302
   766.0,0.000873,0.000788,-0.000107,0.000209,  21.308
   767.0,0.000864,0.000796,-0.000160,0.000222,  21.306
   768.0,0.000835,0.000799,-0.000247,0.000258,  21.304
   769.0,0.000833,0.000798,-0.000310,0.000258,  21.305
   770.0,0.000834,0.000783,-0.000386,0.000222,  21.311
   771.0,0.000838,0.000778,-0.000532,0.000258,  21.309
   772.0,0.000850,0.000787,-0.000244,0.000249,  21.307
   773.0,0.000850,0.000801,-0.000124,0.000271,  21.320
   774.0,0.000861,0.000792,-0.000243,0.000271,  21.319
   775.0,0.000857,0.000797,-0.000780,0.000236,  21.323
   776.0,0.000857,0.000795,-0.000478,0.000258,  21.324
   777.0,0.000857,0.000785,-0.000695,0.000258,  21.323
   778.0,0.000845,0.000797,-0.000371,0.000244,  21.326
   779.0,0.000836,0.000798,-0.000299,0.000209,  21.325
   780.0,0.000839,0.000779,-0.000319,0.000222,  21.326
   781.0,0.000841,0.000775,-0.000229,0.000222,  21.328
   782.0,0.000847,0.000783,-0.000052,0.000258,  21.326
   783.0,0.000839,0.000780,-0.000190,0.000249,  21.325
   784.0,0.000842,0.000781,-0.000352,0.000271,  21.330
   785.0,0.000844,0.000779,-0.000317,0.000222,  21.330
   786.0,0.000836,0.000781,-0.000248,0.000222,  21.326
   787.0,0.000833,0.000781,-0.000120,0.000209,  21.321
   788.0,0.000841,0.000775,-0.000287,0.000187,  21.322
   789.0,0.000815,0.000799,-0.000353,0.000222,  21.323
   790.0,0.000808,0.000776,-0.000776,0.000222,  21.317
   791.0,0.000819,0.000759,-0.000818,0.000200,  21.317
   792.0,0.000829,0.000767,-0.000407,0.000227,  21.315
   793.0,0.000829,0.000764,-0.000426,0.000222,  21.319
   794.0,0.000832,0.000775,-0.000608,0.000236,  21.322
   795.0,0.000829,0.000782,-0.000739,0.000222,  21.318
   796.0,0.000828,0.000778,-0.000623,0.000187,  21.321
   797.0,0.000842,0.000777,-0.001066,0.000222,  21.320
   798.0,0.000851,0.000777,-0.000636,0.000222,  21.312
   799.0,0.000832,0.000794,-0.001229,0.000222,  21.316
   800.0,0.000829,0.000782,-0.000780,0.000222,  21.311
   801.0,0.000840,0.000775,-0.000569,0.000222,  21.311
   802.0,0.000837,0.000786,-0.000501,0.000222,  21.308
   803.0,0.000842,0.000782,-0.000443,0.000222,  21.304
   804.0,0.000853,0.000785,-0.002042,0.000236,  21.302
   805.0,0.000839,0.000789,-0.001073,0.000200,  21.313
   806.0,0.000839,0.000780,-0.000745,0.000236,  21.319
   807.0,0.000837,0.000778,-0.000497,0.000249,  21.309
   808.0,0.000832,0.000774,-0.000301,0.000222,  21.314
   809.0,0.000840,0.000776,-0.000330,0.000209,  21.316
   810.0,0.000814,0.000786,-0.000822,0.000222,  21.319
   811.0,0.000798,0.000779,-0.000647,0.000222,  21.327
   812.0,0.000801,0.000752,-0.001029,0.000222,  21.324
   813.0,0.000814,0.000757,-0.000726,0.000236,  21.325
   814.0,0.000816,0.000762,-0.000685,0.000236,  21.327
   815.0,0.000824,0.000765,-0.000563,0.000249,  21.322
   816.0,0.000824,0.000777,-0.000481,0.000236,  21.327
   817.0,0.000826,0.000773,-0.000634,0.000236,  21.321
   818.0,0.000821,0.000777,-0.000509,0.000209,  21.322
   819.0,0.000824,0.000771,-0.000562,0.000195,  21.323
   820.0,0.000822,0.000764,-0.000497,0.000209,  21.322
   821.0,0.000820,0.000771,-0.001686,0.000209,  21.327
   822.0,0.000812,0.000753,-0.001111,0.000244,  21.331
   823.0,0.000812,0.000757,-0.000776,0.000244,  21.331
   824.0,0.000811,0.000759,-0.001253,0.000258,  21.338
   825.0,0.000820,0.000762,-0.000795,0.000258,  21.338
   826.0,0.000816,0.000771,-0.001805,0.000222,  21.337
   827.0,0.000816,0.000768,-0.000868,0.000236,  21.346
   828.0,0.000811,0.000776,-0.000673,0.000236,  21.341
   829.0,0.000826,0.000778,-0.000477,0.000236,  21.338
   830.0,0.000824,0.000778,-0.000984,0.000209,  21.341
   831.0,0.000813,0.000784,-0.001015,0.000187,  21.343
   832.0,0.000796,0.000781,-0.000993,0.000209,  21.343
   833.0,0.000802,0.000748,-0.001097,0.000209,  21.343
   834.0,0.000798,0.000750,-0.000780,0.000222,  21.343
   835.0,0.000806,0.000753,-0.000618,0.000222,  21.339
   836.0,0.000814,0.000760,-0.000576,0.000222,  21.342
   837.0,0.000816,0.000763,-0.000617,0.000222,  21.342
   838.0,0.000816,0.000767,-0.000635,0.000222,  21.339
   839.0,0.000819,0.000768,-0.000627,0.000222,  21.343
   840.0,0.000815,0.000765,-0.000657,0.000187,  21.346
   841.0,0.000824,0.000767,-0.000609,0.000222,  21.344
   842.0,0.000816,0.000771,-0.000617,0.000222,  21.347
   843.0,0.000816,0.000767,-0.000788,0.000236,  21.343
   844.0,0.000819,0.000774,-0.000580,0.000236,  21.340
   845.0,0.000828,0.000769,-0.000568,0.000249,  21.339
   846.0,0.000830,0.000768,-0.000649,0.000222,  21.341
   847.0,0.000830,0.000770,-0.000609,0.000222,  21.343
   848.0,0.000819,0.000785,-0.000659,0.000222,  21.342
   849.0,0.000827,0.000779,-0.000604,0.000222,  21.340
   850.0,0.000824,0.000778,-0.000490,0.000222,  21.340
   851.0,0.000824,0.000782,-0.001128,0.000168,  21.337
   852.0,0.000816,0.000774,-0.000842,0.000195,  21.338
   853.0,0.000785,0.000772,-0.000715,0.000195,  21.338
   854.0,0.000783,0.000743,-0.000777,0.000195,  21.340
   855.0,0.000793,0.000737,-0.000651,0.000209,  21.340
   856.0,0.000806,0.000742,-0.000616,0.000222,  21.340
   857.0,0.000805,0.000758,-0.000581,0.000209,  21.341
   858.0,0.000816,0.000763,-0.000632,0.000187,  21.344
   859.0,0.000816,0.000769,-0.000592,0.000222,  21.344
   860.0,0.000814,0.000767,-0.000598,0.000222,  21.339
   861.0,0.000816,0.000767,-0.000864,0.000222,  21.345
   862.0,0.000824,0.000768,-0.001061,0.000222,  21.343
   863.0,0.000821,0.000778,-0.000781,0.000244,  21.347
   864.0,0.000811,0.000775,-0.001454,0.000222,  21.344
   865.0,0.000811,0.000759,-0.001376,0.000244,  21.346
   866.0,0.000803,0.000762,-0.000944,0.000258,  21.346
   867.0,0.000795,0.000755,-0.000801,0.000222,  21.351
   868.0,0.000802,0.000758,-0.000874,0.000244,  21.351
   869.0,0.000802,0.000748,-0.000928,0.000222,  21.357
   870.0,0.000804,0.000753,-0.001390,0.000244,  21.362
   871.0,0.000809,0.000755,-0.001018,0.000244,  21.358
   872.0,0.000803,0.000748,-0.000761,0.000168,  21.354
   873.0,0.000811,0.000761,-0.000735,0.000195,  21.358
   874.0,0.000789,0.000769,-0.000681,0.000209,  21.363
   875.0,0.000779,0.000752,-0.000810,0.000222,  21.366
   876.0,0.000793,0.000736,-0.000711,0.000231,  21.367
   877.0,0.000803,0.000751,-0.000732,0.000195,  21.373
   878.0,0.000816,0.000756,-0.001235,0.000231,  21.370
   879.0,0.000816,0.000762,-0.000958,0.000244,  21.376
   880.0,0.000800,0.000775,-0.000926,0.000222,  21.369
   881.0,0.000803,0.000760,-0.000725,0.000244,  21.376
   882.0,0.000801,0.000756,-0.000846,0.000244,  21.377
   883.0,0.000798,0.000755,-0.000717,0.000182,  21.380
   884.0,0.000796,0.000764,-0.000775,0.000231,  21.380
   885.0,0.000796,0.000754,-0.000855,0.000244,  21.381
   886.0,0.000796,0.000759,-0.001795,0.000244,  21.381
   887.0,0.000798,0.000752,-0.001736,0.000231,  21.387
   888.0,0.000803,0.000747,-0.001317,0.000195,  21.381
   889.0,0.000797,0.000756,-0.001050,0.000231,  21.382
   890.0,0.000792,0.000755,-0.001669,0.000244,  21.385
   891.0,0.000814,0.000750,-0.001533,0.000222,  21.389
   892.0,0.000806,0.000752,-0.001041,0.000222,  21.382
   893.0,0.000808,0.000756,-0.000820,0.000182,  21.381
   894.0,0.000802,0.000755,-0.000862,0.000160,  21.381
   895.0,0.000788,0.000775,-0.000839,0.000195,  21.379
   896.0,0.000772,0.000766,-0.000949,0.000195,  21.381
   897.0,0.000788,0.000743,-0.001008,0.000209,  21.385
   898.0,0.000793,0.000746,-0.002139,0.000222,  21.392
   899.0,0.000796,0.000757,-0.001168,0.000222,  21.386
   900.0,0.000797,0.000757,-0.000861,0.000222,  21.384
   901.0,0.000800,0.000765,-0.000718,0.000222,  21.381
   902.0,0.000795,0.000769,-0.000798,0.000222,  21.382
   903.0,0.000803,0.000767,-0.001351,0.000209,  21.382
   904.0,0.000798,0.000758,-0.000944,0.000222,  21.385
   905.0,0.000801,0.000759,-0.000881,0.000209,  21.392
   906.0,0.000785,0.000758,-0.001012,0.000195,  21.393
   907.0,0.000787,0.000745,-0.000831,0.000209,  21.397
   908.0,0.000787,0.000750,-0.000742,0.000209,  21.395
   909.0,0.000787,0.000744,-0.001451,0.000222,  21.403
   910.0,0.000792,0.000743,-0.001195,0.000222,  21.403
   911.0,0.000808,0.000749,-0.001044,0.000231,  21.405
   912.0,0.000803,0.000763,-0.000866,0.000209,  21.407
   913.0,0.000798,0.000761,-0.000874,0.000209,  21.406
   914.0,0.000802,0.000751,-0.000872,0.000209,  21.407
   915.0,0.000801,0.000744,-0.001131,0.000195,  21.403
   916.0,0.000793,0.000751,-0.000883,0.000209,  21.411
   917.0,0.000762,0.000749,-0.001919,0.000209,  21.409
   918.0,0.000785,0.000720,-0.001347,0.000222,  21.408
   919.0,0.000790,0.000729,-0.002064,0.000222,  21.409
   920.0,0.000789,0.000738,-0.001322,0.000209,  21.406
   921.0,0.000801,0.000752,-0.001110,0.000187,  21.411
   922.0,0.000798,0.000755,-0.001044,0.000209,  21.409
   923.0,0.000801,0.000759,-0.000890,0.000222,  21.413
   924.0,0.000801,0.000757,-0.000946,0.000209,  21.408
   925.0,0.000802,0.000753,-0.000970,0.000209,  21.408
   926.0,0.000803,0.000750,-0.002187,0.000222,  21.412
   927.0,0.000801,0.000757,-0.001338,0.000209,  21.413
   928.0,0.000796,0.000741,-0.001191,0.000209,  21.416
   929.0,0.000798,0.000737,-0.001006,0.000236,  21.417
   930.0,0.000798,0.000748,-0.001035,0.000222,  21.411
   931.0,0.000797,0.000753,-0.001055,0.000222,  21.416
   932.0,0.000791,0.000755,-0.001827,0.000209,  21.421
   933.0,0.000796,0.000767,-0.001364,0.000209,  21.421
   934.0,0.000790,0.000759,-0.001169,0.000222,  21.424
   935.0,0.000796,0.000757,-0.000902,0.000195,  21.422
   936.0,0.000805,0.000760,-0.000695,0.000182,  21.424
   937.0,0.000802,0.000771,-0.001070,0.000209,  21.425
   938.0,0.000771,0.000773,-0.000948,0.000209,  21.430
   939.0,0.000782,0.000759,-0.000896,0.000187,  21.429
   940.0,0.000796,0.000743,-0.000845,0.000222,  21.423
   941.0,0.000789,0.000736,-0.001121,0.000222,  21.421
   942.0,0.000800,0.000754,-0.001617,0.000222,  21.416
   943.0,0.000800,0.000759,-0.001086,0.000222,  21.401
   944.0,0.000798,0.000751,-0.000953,0.000236,  21.395
   945.0,0.000801,0.000751,-0.000902,0.000222,  21.393
   946.0,0.000803,0.000759,-0.001594,0.000222,  21.391
   947.0,0.000814,0.000753,-0.001140,0.000222,  21.389
   948.0,0.000801,0.000771,-0.001116,0.000187,  21.390
   949.0,0.000804,0.000758,-0.001016,0.000209,  21.393
   950.0,0.000806,0.000757,-0.001029,0.000222,  21.393
   951.0,0.000801,0.000755,-0.001281,0.000209,  21.389
   952.0,0.000801,0.000751,-0.000971,0.000209,  21.391
   953.0,0.000801,0.000752,-0.000899,0.000222,  21.393
   954.0,0.000797,0.000741,-0.000918,0.000222,  21.395
   955.0,0.000789,0.000763,-0.000769,0.000222,  21.405
   956.0,0.000792,0.000752,-0.000841,0.000222,  21.400
   957.0,0.000789,0.000746,-0.000697,0.000182,  21.398
   958.0,0.000808,0.000750,-0.001154,0.000182,  21.398
   959.0,0.000788,0.000759,-0.000904,0.000195,  21.402
   960.0,0.000770,0.000751,-0.000970,0.000209,  21.403
   961.0,0.000768,0.000734,-0.000908,0.000222,  21.403
   962.0,0.000784,0.000739,-0.000816,0.000209,  21.406
   963.0,0.000789,0.000734,-0.000875,0.000209,  21.402
   964.0,0.000797,0.000750,-0.001357,0.000222,  21.407
   965.0,0.000795,0.000751,-0.000973,0.000222,  21.408
   966.0,0.000792,0.000745,-0.001019,0.000187,  21.416
   967.0,0.000804,0.000752,-0.000892,0.000231,  21.410
   968.0,0.000802,0.000752,-0.000865,0.000244,  21.413
   969.0,0.000787,0.000764,-0.000939,0.000222,  21.411
   970.0,0.000795,0.000753,-0.000975,0.000209,  21.417
   971.0,0.000797,0.000758,-0.001238,0.000222,  21.423
   972.0,0.000797,0.000758,-0.001072,0.000222,  21.423
   973.0,0.000797,0.000751,-0.001672,0.000222,  21.426
   974.0,0.000804,0.000748,-0.001027,0.000222,  21.427
   975.0,0.000798,0.000764,-0.000920,0.000236,  21.431
   976.0,0.000799,0.000766,-0.000899,0.000222,  21.433
   977.0,0.000783,0.000753,-0.001105,0.000209,  21.430
   978.0,0.000781,0.000746,-0.001710,0.000168,  21.430
   979.0,0.000778,0.000741,-0.001185,0.000168,  21.429
   980.0,0.000759,0.000751,-0.001081,0.000182,  21.433
   981.0,0.000747,0.000743,-0.000942,0.000182,  21.431
   982.0,0.000750,0.000710,-0.000922,0.000217,  21.435
   983.0,0.000749,0.000712,-0.001038,0.000195,  21.437
   984.0,0.000765,0.000717,-0.001260,0.000195,  21.431
   985.0,0.000775,0.000717,-0.001096,0.000195,  21.435
   986.0,0.000794,0.000738,-0.000873,0.000195,  21.435
   987.0,0.000781,0.000748,-0.001054,0.000195,  21.436
   988.0,0.000775,0.000736,-0.000771,0.000195,  21.432
   989.0,0.000781,0.000742,-0.000680,0.000209,  21.431
   990.0,0.000776,0.000744,-0.000780,0.000195,  21.431
   991.0,0.000772,0.000742,-0.001257,0.000195,  21.435
   992.0,0.000784,0.000750,-0.000901,0.000195,  21.433
   993.0,0.000789,0.000755,-0.000976,0.000160,  21.432
   994.0,0.000795,0.000749,-0.001032,0.000195,  21.434
   995.0,0.000781,0.000743,-0.001353,0.000182,  21.439
   996.0,0.000787,0.000737,-0.001019,0.000182,  21.437
   997.0,0.000782,0.000738,-0.000819,0.000182,  21.443
   998.0,0.000776,0.000736,-0.000853,0.000182,  21.440
   999.0,0.000783,0.000742,-0.000689,0.000168,  21.443
  1000.0,0.000792,0.000736,-0.000741,0.000217,  21.448
  1001.0,0.000773,0.000743,-0.000660,0.000204,  21.445
  1002.0,0.000753,0.000745,-0.000875,0.000217,  21.446
  1003.0,0.000746,0.000729,-0.000935,0.000217,  21.450
  1004.0,0.000759,0.000721,-0.000918,0.000209,  21.447
  1005.0,0.000773,0.000728,-0.000775,0.000195,  21.440
  1006.0,0.000776,0.000734,-0.000780,0.000195,  21.438
  1007.0,0.000787,0.000738,-0.000786,0.000195,  21.444
  1008.0,0.000787,0.000752,-0.000845,0.000168,  21.441
  1009.0,0.000776,0.000750,-0.000486,0.000182,  21.443
  1010.0,0.000767,0.000741,-0.000697,0.000146,  21.438
  1011.0,0.000782,0.000742,-0.000773,0.000204,  21.442
  1012.0,0.000774,0.000746,-0.000791,0.000182,  21.437
  1013.0,0.000768,0.000730,-0.001150,0.000217,  21.435
  1014.0,0.000777,0.000731,-0.000915,0.000182,  21.439
  1015.0,0.000778,0.000735,-0.000822,0.000182,  21.433
  1016.0,0.000778,0.000734,-0.001275,0.000182,  21.436
  1017.0,0.000781,0.000732,-0.001175,0.000204,  21.428
  1018.0,0.000775,0.000737,-0.001009,0.000204,  21.435
  1019.0,0.000768,0.000729,-0.000955,0.000204,  21.427
  1020.0,0.000765,0.000722,-0.000728,0.000182,  21.426
  1021.0,0.000781,0.000736,-0.000616,0.000182,  21.425
  1022.0,0.000773,0.000750,-0.000684,0.000182,  21.422
  1023.0,0.000753,0.000755,-0.001239,0.000182,  21.426
  1024.0,0.000753,0.000735,-0.001523,0.000182,  21.426
  1025.0,0.000766,0.000716,-0.001081,0.000190,  21.424
  1026.0,0.000757,0.000716,-0.000889,0.000168,  21.421
  1027.0,0.000765,0.000716,-0.000919,0.000217,  21.425
  1028.0,0.000759,0.000715,-0.000777,0.000146,  21.429
  1029.0,0.000760,0.000721,-0.000878,0.000182,  21.425
  1030.0,0.000769,0.000722,-0.000945,0.000168,  21.429
  1031.0,0.000784,0.000723,-0.001030,0.000182,  21.429
  1032.0,0.000787,0.000724,-0.001091,0.000182,  21.428
  1033.0,0.000776,0.000738,-0.001140,0.000168,  21.429
  1034.0,0.000772,0.000732,-0.001458,0.000182,  21.426
  1035.0,0.000767,0.000725,-0.001504,0.000182,  21.430
  1036.0,0.000771,0.000729,-0.001105,0.000168,  21.429
  1037.0,0.000773,0.000727,-0.001045,0.000133,  21.426
  1038.0,0.000771,0.000720,-0.001021,0.000182,  21.426
  1039.0,0.000770,0.000727,-0.000831,0.000182,  21.429
  1040.0,0.000768,0.000738,-0.001259,0.000182,  21.433
  1041.0,0.000771,0.000721,-0.000931,0.000182,  21.433
  1042.0,0.000771,0.000726,-0.000816,0.000182,  21.434
  1043.0,0.000784,0.000728,-0.001000,0.000182,  21.430
  1044.0,0.000764,0.000748,-0.001346,0.000204,  21.433
  1045.0,0.000764,0.000741,-0.002055,0.000182,  21.434
  1046.0,0.000769,0.000733,-0.001270,0.000231,  21.434
  1047.0,0.000770,0.000731,-0.001041,0.000209,  21.433
  1048.0,0.000778,0.000734,-0.001049,0.000209,  21.435
  1049.0,0.000777,0.000745,-0.001248,0.000209,  21.434
  1050.0,0.000775,0.000746,-0.000958,0.000222,  21.432
  1051.0,0.000781,0.000748,-0.002008,0.000195,  21.431
  1052.0,0.000780,0.000742,-0.001257,0.000182,  21.431
  1053.0,0.000788,0.000741,-0.001566,0.000195,  21.427
  1054.0,0.000772,0.000748,-0.001057,0.000182,  21.429
  1055.0,0.000775,0.000739,-0.000916,0.000146,  21.427
  1056.0,0.000771,0.000750,-0.000810,0.000182,  21.429
  1057.0,0.000778,0.000733,-0.000747,0.000182,  21.431
  1058.0,0.000787,0.000734,-0.000664,0.000182,  21.431
  1059.0,0.000786,0.000743,-0.000789,0.000182,  21.433
  1060.0,0.000778,0.000743,-0.000753,0.000182,  21.434
  1061.0,0.000772,0.000740,-0.000838,0.000195,  21.440
  1062.0,0.000778,0.000744,-0.000891,0.000182,  21.439
  1063.0,0.000776,0.000736,-0.000755,0.000155,  21.436
  1064.0,0.000783,0.000731,-0.000776,0.000119,  21.437
  1065.0,0.000771,0.000742,-0.000771,0.000168,  21.436
  1066.0,0.000759,0.000741,-0.000746,0.000182,  21.434
  1067.0,0.000761,0.000722,-0.000771,0.000182,  21.441
  1068.0,0.000765,0.000722,-0.000866,0.000182,  21.437
  1069.0,0.000767,0.000726,-0.000847,0.000182,  21.436
  1070.0,0.000772,0.000733,-0.000759,0.000182,  21.433
  1071.0,0.000777,0.000741,-0.001000,0.000182,  21.438
  1072.0,0.000765,0.000744,-0.000938,0.000133,  21.441
  1073.0,0.000773,0.000728,-0.000838,0.000168,  21.436
  1074.0,0.000768,0.000731,-0.000787,0.000182,  21.437
  1075.0,0.000762,0.000735,-0.000905,0.000182,  21.436
  1076.0,0.000770,0.000723,-0.000997,0.000182,  21.444
  1077.0,0.000770,0.000727,-0.000764,0.000195,  21.442
  1078.0,0.000768,0.000741,-0.000775,0.000195,  21.446
  1079.0,0.000763,0.000733,-0.000794,0.000195,  21.440
  1080.0,0.000765,0.000738,-0.000810,0.000209,  21.438
  1081.0,0.000773,0.000724,-0.000837,0.000195,  21.441
  1082.0,0.000767,0.000731,-0.000742,0.000182,  21.442
  1083.0,0.000765,0.000734,-0.000664,0.000182,  21.436
  1084.0,0.000767,0.000726,-0.001153,0.000168,  21.440
  1085.0,0.000780,0.000730,-0.001236,0.000182,  21.444
  1086.0,0.000773,0.000737,-0.000879,0.000182,  21.446
  1087.0,0.000763,0.000734,-0.000721,0.000168,  21.449
  1088.0,0.000752,0.000719,-0.000874,0.000182,  21.448
  1089.0,0.000763,0.000719,-0.000798,0.000182,  21.451
  1090.0,0.000759,0.000707,-0.000819,0.000146,  21.454
  1091.0,0.000770,0.000717,-0.000835,0.000182,  21.451
  1092.0,0.000767,0.000722,-0.001329,0.000182,  21.449
  1093.0,0.000771,0.000727,-0.001860,0.000182,  21.454
  1094.0,0.000762,0.000727,-0.001135,0.000182,  21.452
  1095.0,0.000768,0.000724,-0.000970,0.000182,  21.451
  1096.0,0.000775,0.000723,-0.000880,0.000182,  21.450
  1097.0,0.000772,0.000726,-0.000911,0.000204,  21.448
  1098.0,0.000766,0.000726,-0.000888,0.000204,  21.448
  1099.0,0.000757,0.000736,-0.000800,0.000217,  21.446
  1100.0,0.000762,0.000723,-0.000810,0.000182,  21.451
  1101.0,0.000762,0.000730,-0.000811,0.000182,  21.446
  1102.0,0.000775,0.000723,-0.000741,0.000182,  21.451
  1103.0,0.000777,0.000733,-0.000813,0.000217,  21.453
  1104.0,0.000770,0.000728,-0.000786,0.000195,  21.451
  1105.0,0.000771,0.000729,-0.000752,0.000204,  21.449
  1106.0,0.000776,0.000727,-0.000867,0.000190,  21.451
  1107.0,0.000777,0.000730,-0.000883,0.000155,  21.449
  1108.0,0.000747,0.000740,-0.000869,0.000204,  21.450
  1109.0,0.000741,0.000719,-0.001244,0.000168,  21.448
  1110.0,0.000739,0.000712,-0.001385,0.000204,  21.450
  1111.0,0.000739,0.000705,-0.001138,0.000190,  21.452
  1112.0,0.000739,0.000709,-0.000900,0.000155,  21.445
  1113.0,0.000741,0.000705,-0.000915,0.000217,  21.450
  1114.0,0.000741,0.000708,-0.000913,0.000190,  21.449
  1115.0,0.000744,0.000719,-0.001676,0.000182,  21.448
  1116.0,0.000747,0.000707,-0.001180,0.000204,  21.445
  1117.0,0.000744,0.000712,-0.001108,0.000226,  21.440
  1118.0,0.000747,0.000715,-0.000852,0.000240,  21.437
  1119.0,0.000759,0.000714,-0.000751,0.000204,  21.438
  1120.0,0.000744,0.000719,-0.001261,0.000182,  21.439
  1121.0,0.000758,0.000710,-0.001027,0.000182,  21.442
  1122.0,0.000758,0.000714,-0.001252,0.000168,  21.441
  1123.0,0.000754,0.000711,-0.001517,0.000155,  21.442
  1124.0,0.000757,0.000719,-0.001904,0.000204,  21.446
  1125.0,0.000763,0.000721,-0.001279,0.000190,  21.453
  1126.0,0.000760,0.000723,-0.000939,0.000204,  21.449
  1127.0,0.000765,0.000716,-0.000684,0.000190,  21.449
  1128.0,0.000768,0.000721,-0.000892,0.000168,  21.448
  1129.0,0.000759,0.000738,-0.000921,0.000217,  21.449
  1130.0,0.000755,0.000717,-0.001896,0.000217,  21.451
  1131.0,0.000754,0.000730,-0.001090,0.000182,  21.454
  1132.0,0.000768,0.000716,-0.000961,0.000182,  21.455
  1133.0,0.000771,0.000727,-0.001315,0.000146,  21.457
  1134.0,0.000771,0.000721,-0.001155,0.000182,  21.452
  1135.0,0.000768,0.000725,-0.001783,0.000182,  21.457
  1136.0,0.000757,0.000725,-0.001046,0.000182,  21.451
  1137.0,0.000778,0.000724,-0.000832,0.000182,  21.462
  1138.0,0.000783,0.000730,-0.000864,0.000195,  21.462
  1139.0,0.000770,0.000742,-0.000782,0.000195,  21.456
  1140.0,0.000785,0.000739,-0.001396,0.000195,  21.463
  1141.0,0.000780,0.000744,-0.000941,0.000195,  21.460
  1142.0,0.000783,0.000739,-0.001033,0.000209,  21.461
  1143.0,0.000777,0.000743,-0.000839,0.000209,  21.461
  1144.0,0.000783,0.000740,-0.000843,0.000195,  21.462
  1145.0,0.000786,0.000743,-0.001209,0.000182,  21.469
  1146.0,0.000778,0.000741,-0.000987,0.000182,  21.468
  1147.0,0.000762,0.000745,-0.001226,0.000168,  21.468
  1148.0,0.000755,0.000727,-0.001591,0.000168,  21.467
  1149.0,0.000760,0.000717,-0.001072,0.000190,  21.470
  1150.0,0.000739,0.000719,-0.001018,0.000168,  21.468
  1151.0,0.000734,0.000705,-0.001022,0.000204,  21.469
  1152.0,0.000729,0.000709,-0.001154,0.000155,  21.472
  1153.0,0.000738,0.000712,-0.000992,0.000204,  21.479
  1154.0,0.000744,0.000708,-0.001044,0.000155,  21.481
  1155.0,0.000747,0.000706,-0.002240,0.000155,  21.482
  1156.0,0.000753,0.000706,-0.001437,0.000182,  21.488
  1157.0,0.000745,0.000710,-0.001106,0.000168,  21.490
  1158.0,0.000746,0.000703,-0.001280,0.000182,  21.493
  1159.0,0.000759,0.000702,-0.001411,0.000182,  21.500
  1160.0,0.000749,0.000718,-0.001115,0.000182,  21.498
  1161.0,0.000752,0.000707,-0.001040,0.000133,  21.502
  1162.0,0.000762,0.000717,-0.001387,0.000133,  21.508
  1163.0,0.000742,0.000734,-0.001776,0.000110,  21.504
  1164.0,0.000761,0.000730,-0.001360,0.000146,  21.505
  1165.0,0.000755,0.000727,-0.001030,0.000146,  21.506
  1166.0,0.000765,0.000731,-0.001553,0.000110,  21.506
  1167.0,0.000777,0.000734,-0.001151,0.000146,  21.510
  1168.0,0.000769,0.000743,-0.001755,0.000160,  21.506
  1169.0,0.000759,0.000741,-0.001026,0.000168,  21.506
  1170.0,0.000771,0.000735,-0.000867,0.000182,  21.506
  1171.0,0.000765,0.000738,-0.000805,0.000182,  21.503
  1172.0,0.000740,0.000747,-0.001340,0.000182,  21.499
  1173.0,0.000750,0.000723,-0.000952,0.000182,  21.501
  1174.0,0.000763,0.000730,-0.000872,0.000182,  21.501
  1175.0,0.000771,0.000726,-0.001215,0.000182,  21.493
  1176.0,0.000764,0.000727,-0.000861,0.000190,  21.502
  1177.0,0.000760,0.000725,-0.001086,0.000182,  21.503
  1178.0,0.000771,0.000726,-0.001624,0.000168,  21.498
  1179.0,0.000760,0.000737,-0.001111,0.000133,  21.500
  1180.0,0.000766,0.000735,-0.001414,0.000182,  21.502
  1181.0,0.000767,0.000730,-0.001030,0.000155,  21.500
  1182.0,0.000751,0.000723,-0.001264,0.000168,  21.506
  1183.0,0.000762,0.000724,-0.000894,0.000182,  21.506
  1184.0,0.000746,0.000723,-0.001112,0.000168,  21.507
  1185.0,0.000748,0.000717,-0.001068,0.000182,  21.509
  1186.0,0.000752,0.000712,-0.001011,0.000190,  21.510
  1187.0,0.000748,0.000709,-0.000927,0.000155,  21.516
  1188.0,0.000751,0.000712,-0.000903,0.000119,  21.524
  1189.0,0.000742,0.000715,-0.000699,0.000168,  21.521
  1190.0,0.000745,0.000718,-0.000623,0.000168,  21.524
  1191.0,0.000749,0.000708,-0.001181,0.000155,  21.523
  1192.0,0.000756,0.000717,-0.001248,0.000155,  21.528
  1193.0,0.000734,0.000720,-0.001422,0.000168,  21.527
  1194.0,0.000752,0.000709,-0.001173,0.000168,  21.527
  1195.0,0.000752,0.000716,-0.000967,0.000155,  21.530
  1196.0,0.000749,0.000713,-0.000933,0.000182,  21.527
  1197.0,0.000754,0.000716,-0.000724,0.000168,  21.530
  1198.0,0.000746,0.000726,-0.000923,0.000182,  21.534
  1199.0,0.000743,0.000719,-0.001107,0.000168,  21.529
  1200.0,0.000737,0.000723,-0.000902,0.000155,  21.530
  1201.0,0.000737,0.000707,-0.000880,0.000155,  21.533
  1202.0,0.000740,0.000700,-0.000968,0.000168,  21.527
  1203.0,0.000733,0.000699,-0.002004,0.000155,  21.531
  1204.0,0.000730,0.000695,-0.001130,0.000155,  21.534
  1205.0,0.000724,0.000696,-0.001036,0.000190,  21.530
  1206.0,0.000733,0.000706,-0.002067,0.000177,  21.533
  1207.0,0.000738,0.000697,-0.001200,0.000141,  21.534
  1208.0,0.000729,0.000690,-0.001053,0.000163,  21.525
  1209.0,0.000732,0.000696,-0.000980,0.000128,  21.523
  1210.0,0.000735,0.000698,-0.001026,0.000190,  21.521
  1211.0,0.000729,0.000694,-0.000927,0.000177,  21.510
  1212.0,0.000733,0.000685,-0.000779,0.000128,  21.508
  1213.0,0.000728,0.000693,-0.000854,0.000177,  21.504
  1214.0,0.000719,0.000709,-0.001213,0.000163,  21.501
  1215.0,0.000733,0.000691,-0.000974,0.000177,  21.496
  1216.0,0.000739,0.000695,-0.000884,0.000177,  21.495
  1217.0,0.000744,0.000694,-0.000892,0.000155,  21.500
  1218.0,0.000744,0.000700,-0.000723,0.000190,  21.494
  1219.0,0.000746,0.000706,-0.000900,0.000177,  21.496
  1220.0,0.000754,0.000704,-0.000779,0.000141,  21.491
  1221.0,0.000754,0.000712,-0.000715,0.000190,  21.493
  1222.0,0.000731,0.000725,-0.001111,0.000199,  21.490
  1223.0,0.000734,0.000710,-0.000931,0.000155,  21.491
  1224.0,0.000729,0.000714,-0.000847,0.000177,  21.494
  1225.0,0.000738,0.000699,-0.000790,0.000106,  21.494
  1226.0,0.000734,0.000710,-0.000765,0.000141,  21.500
  1227.0,0.000729,0.000701,-0.000918,0.000141,  21.502
  1228.0,0.000734,0.000706,-0.000821,0.000155,  21.498
  1229.0,0.000728,0.000703,-0.000935,0.000155,  21.503
  1230.0,0.000740,0.000709,-0.000868,0.000141,  21.508
  1231.0,0.000740,0.000708,-0.000723,0.000155,  21.507
  1232.0,0.000728,0.000716,-0.000656,0.000155,  21.501
  1233.0,0.000737,0.000698,-0.000678,0.000106,  21.502
  1234.0,0.000739,0.000706,-0.000630,0.000128,  21.500
  1235.0,0.000723,0.000705,-0.000690,0.000128,  21.489
  1236.0,0.000709,0.000705,-0.000769,0.000128,  21.491
  1237.0,0.000717,0.000695,-0.000764,0.000155,  21.492
  1238.0,0.000729,0.000712,-0.000871,0.000141,  21.488
  1239.0,0.000734,0.000707,-0.000750,0.000155,  21.488
  1240.0,0.000736,0.000702,-0.001480,0.000177,  21.486
  1241.0,0.000740,0.000700,-0.001548,0.000150,  21.495
  1242.0,0.000729,0.000701,-0.001720,0.000163,  21.493
  1243.0,0.000719,0.000697,-0.001162,0.000114,  21.493
  1244.0,0.000719,0.000689,-0.001609,0.000128,  21.498
  1245.0,0.000700,0.000695,-0.001006,0.000141,  21.495
  1246.0,0.000711,0.000679,-0.000884,0.000128,  21.499
  1247.0,0.000724,0.000676,-0.001261,0.000128,  21.496
  1248.0,0.000715,0.000688,-0.000977,0.000141,  21.497
  1249.0,0.000729,0.000684,-0.000850,0.000128,  21.501
  1250.0,0.000732,0.000695,-0.000764,0.000141,  21.496
  1251.0,0.000734,0.000695,-0.000861,0.000141,  21.501
  1252.0,0.000737,0.000700,-0.000819,0.000141,  21.503
  1253.0,0.000734,0.000700,-0.000703,0.000163,  21.501
  1254.0,0.000726,0.000704,-0.000711,0.000150,  21.499
  1255.0,0.000728,0.000703,-0.000859,0.000128,  21.502
  1256.0,0.000717,0.000708,-0.000696,0.000177,  21.503
  1257.0,0.000708,0.000703,-0.001371,0.000163,  21.506
  1258.0,0.000712,0.000691,-0.001146,0.000155,  21.506
  1259.0,0.000712,0.000691,-0.000880,0.000141,  21.500
  1260.0,0.000723,0.000690,-0.000755,0.000106,  21.499
  1261.0,0.000728,0.000697,-0.000697,0.000155,  21.495
  1262.0,0.000734,0.000694,-0.000717,0.000141,  21.499
  1263.0,0.000730,0.000697,-0.000542,0.000128,  21.494
  1264.0,0.000720,0.000698,-0.000868,0.000128,  21.489
  1265.0,0.000724,0.000691,-0.000864,0.000114,  21.503
  1266.0,0.000722,0.000695,-0.000912,0.000128,  21.496
  1267.0,0.000710,0.000687,-0.000860,0.000141,  21.497
  1268.0,0.000719,0.000685,-0.000858,0.000114,  21.503
  1269.0,0.000731,0.000685,-0.000779,0.000106,  21.505
  1270.0,0.000725,0.000700,-0.000813,0.000128,  21.506
  1271.0,0.000724,0.000686,-0.000813,0.000128,  21.507
  1272.0,0.000721,0.000686,-0.001940,0.000141,  21.505
  1273.0,0.000718,0.000685,-0.001732,0.000141,  21.507
  1274.0,0.000722,0.000683,-0.001020,0.000128,  21.506
  1275.0,0.000717,0.000701,-0.001257,0.000141,  21.505
  1276.0,0.000736,0.000693,-0.000753,0.000128,  21.504
  1277.0,0.000725,0.000709,-0.000633,0.000128,  21.514
  1278.0,0.000722,0.000711,-0.000623,0.000128,  21.514
  1279.0,0.000723,0.000688,-0.000757,0.000128,  21.507
  1280.0,0.000715,0.000685,-0.000762,0.000155,  21.509
  1281.0,0.000726,0.000695,-0.000830,0.000141,  21.502
  1282.0,0.000725,0.000695,-0.000762,0.000155,  21.506
  1283.0,0.000730,0.000694,-0.002162,0.000155,  21.508
  1284.0,0.000741,0.000697,-0.001913,0.000119,  21.504
  1285.0,0.000740,0.000708,-0.001885,0.000155,  21.501
  1286.0,0.000745,0.000707,-0.001210,0.000141,  21.504
  1287.0,0.000740,0.000688,-0.000824,0.000106,  21.506
  1288.0,0.000728,0.000700,-0.000720,0.000155,  21.506
  1289.0,0.000731,0.000699,-0.000780,0.000141,  21.509
  1290.0,0.000722,0.000690,-0.000795,0.000155,  21.506
  1291.0,0.000720,0.000703,-0.000708,0.000155,  21.509
  1292.0,0.000726,0.000698,-0.000824,0.000141,  21.509
  1293.0,0.000720,0.000702,-0.000874,0.000155,  21.515
  1294.0,0.000714,0.000699,-0.000850,0.000141,  21.513
  1295.0,0.000722,0.000699,-0.000796,0.000106,  21.519
  1296.0,0.000711,0.000696,-0.000650,0.000155,  21.516
  1297.0,0.000722,0.000692,-0.000550,0.000128,  21.517
  1298.0,0.000712,0.000700,-0.000975,0.000141,  21.518
  1299.0,0.000691,0.000703,-0.000707,0.000168,  21.519
  1300.0,0.000710,0.000680,-0.000864,0.000106,  21.512
  1301.0,0.000720,0.000694,-0.000717,0.000092,  21.517
  1302.0,0.000724,0.000686,-0.000837,0.000150,  21.519
  1303.0,0.000722,0.000686,-0.000696,0.000177,  21.520
  1304.0,0.000730,0.000695,-0.000762,0.000177,  21.517
  1305.0,0.000738,0.000693,-0.000799,0.000141,  21.514
  1306.0,0.000737,0.000702,-0.000671,0.000155,  21.519
  1307.0,0.000730,0.000711,-0.000795,0.000155,  21.520
  1308.0,0.000739,0.000707,-0.000780,0.000141,  21.521
  1309.0,0.000709,0.000709,-0.000655,0.000141,  21.518
  1310.0,0.000715,0.000690,-0.000871,0.000141,  21.516
  1311.0,0.000732,0.000694,-0.000830,0.000128,  21.515
  1312.0,0.000732,0.000697,-0.001709,0.000128,  21.515
  1313.0,0.000727,0.000701,-0.001040,0.000141,  21.519
  1314.0,0.000715,0.000690,-0.000921,0.000155,  21.519
  1315.0,0.000714,0.000688,-0.001328,0.000141,  21.519
  1316.0,0.000725,0.000694,-0.000800,0.000150,  21.517
  1317.0,0.000722,0.000695,-0.000726,0.000128,  21.519
  1318.0,0.000720,0.000686,-0.001252,0.000114,  21.519
  1319.0,0.000731,0.000691,-0.000951,0.000114,  21.527
  1320.0,0.000707,0.000707,-0.000854,0.000128,  21.528
  1321.0,0.000709,0.000696,-0.000734,0.000128,  21.523
  1322.0,0.000722,0.000680,-0.000669,0.000106,  21.529
  1323.0,0.000724,0.000696,-0.000752,0.000141,  21.531
  1324.0,0.000736,0.000691,-0.000694,0.000128,  21.537
  1325.0,0.000725,0.000695,-0.000646,0.000128,  21.535
  1326.0,0.000722,0.000698,-0.000631,0.000141,  21.538
  1327.0,0.000726,0.000686,-0.000732,0.000128,  21.542
  1328.0,0.000715,0.000697,-0.000638,0.000128,  21.544
  1329.0,0.000716,0.000699,-0.000648,0.000128,  21.543
  1330.0,0.000717,0.000691,-0.001062,0.000079,  21.545
  1331.0,0.000715,0.000681,-0.001130,0.000114,  21.547
  1332.0,0.000722,0.000683,-0.001429,0.000114,  21.547
  1333.0,0.000722,0.000685,-0.001501,0.000128,  21.543
  1334.0,0.000711,0.000687,-0.000940,0.000128,  21.543
  1335.0,0.000727,0.000684,-0.001547,0.000128,  21.539
  1336.0,0.000720,0.000688,-0.001309,0.000128,  21.540
  1337.0,0.000728,0.000690,-0.000843,0.000128,  21.539
  1338.0,0.000734,0.000692,-0.000838,0.000114,  21.528
  1339.0,0.000726,0.000702,-0.000726,0.000092,  21.524
  1340.0,0.000723,0.000704,-0.001079,0.000123,  21.523
  1341.0,0.000718,0.000698,-0.001068,0.000114,  21.516
  1342.0,0.000713,0.000699,-0.001176,0.000150,  21.515
  1343.0,0.000710,0.000681,-0.000814,0.000114,  21.505
  1344.0,0.000707,0.000679,-0.000837,0.000114,  21.503
  1345.0,0.000706,0.000688,-0.000710,0.000114,  21.507
  1346.0,0.000721,0.000684,-0.000663,0.000128,  21.509
  1347.0,0.000716,0.000688,-0.000761,0.000128,  21.515
  1348.0,0.000725,0.000690,-0.000840,0.000128,  21.512
  1349.0,0.000720,0.000687,-0.000692,0.000128,  21.518
  1350.0,0.000719,0.000691,-0.000698,0.000141,  21.518
  1351.0,0.000720,0.000689,-0.001415,0.000128,  21.524
  1352.0,0.000720,0.000690,-0.001852,0.000128,  21.526
  1353.0,0.000719,0.000683,-0.001008,0.000141,  21.525
  1354.0,0.000735,0.000686,-0.000762,0.000128,  21.531
  1355.0,0.000733,0.000698,-0.000774,0.000128,  21.541
  1356.0,0.000727,0.000695,-0.000909,0.000141,  21.547
  1357.0,0.000724,0.000695,-0.001278,0.000106,  21.543
  1358.0,0.000727,0.000695,-0.000893,0.000141,  21.547
  1359.0,0.000735,0.000695,-0.000611,0.000141,  21.544
  1360.0,0.000740,0.000702,-0.000403,0.000128,  21.541
  1361.0,0.000729,0.000704,-0.000602,0.000114,  21.542
  1362.0,0.000728,0.000713,-0.001451,0.000114,  21.546
  1363.0,0.000709,0.000707,-0.001999,0.000128,  21.545
  1364.0,0.000717,0.000677,-0.001194,0.000114,  21.543
  1365.0,0.000721,0.000681,-0.001514,0.000128,  21.555
  1366.0,0.000718,0.000692,-0.001182,0.000141,  21.547
  1367.0,0.000723,0.000687,-0.000734,0.000163,  21.551
  1368.0,0.000722,0.000692,-0.001405,0.000128,  21.550
  1369.0,0.000720,0.000682,-0.000858,0.000128,  21.553
  1370.0,0.000736,0.000686,-0.000672,0.000128,  21.543
  1371.0,0.000728,0.000701,-0.000657,0.000128,  21.546
  1372.0,0.000719,0.000694,-0.002301,0.000141,  21.550
  1373.0,0.000720,0.000704,-0.001159,0.000141,  21.545
  1374.0,0.000728,0.000690,-0.000687,0.000155,  21.548
  1375.0,0.000730,0.000704,-0.000646,0.000155,  21.547
  1376.0,0.000735,0.000715,-0.000497,0.000106,  21.553
  1377.0,0.000738,0.000712,-0.000539,0.000155,  21.553
  1378.0,0.000742,0.000706,-0.000682,0.000141,  21.549
  1379.0,0.000744,0.000712,-0.000616,0.000128,  21.555
  1380.0,0.000746,0.000714,-0.000763,0.000141,  21.553
  1381.0,0.000740,0.000702,-0.000469,0.000114,  21.554
  1382.0,0.000737,0.000714,-0.000548,0.000128,  21.551
  1383.0,0.000726,0.000714,-0.000625,0.000137,  21.550
  1384.0,0.000710,0.000710,-0.000846,0.000150,  21.550
  1385.0,0.000721,0.000679,-0.000745,0.000128,  21.549
  1386.0,0.000726,0.000680,-0.000604,0.000128,  21.548
  1387.0,0.000721,0.000688,-0.000629,0.000128,  21.552
  1388.0,0.000726,0.000696,-0.000634,0.000141,  21.555
  1389.0,0.000732,0.000699,-0.000533,0.000128,  21.553
  1390.0,0.000720,0.000686,-0.000720,0.000128,  21.552
  1391.0,0.000725,0.000686,-0.000989,0.000141,  21.553
  1392.0,0.000720,0.000688,-0.000841,0.000128,  21.550
  1393.0,0.000722,0.000682,-0.000856,0.000128,  21.554
  1394.0,0.000715,0.000688,-0.001337,0.000128,  21.551
  1395.0,0.000725,0.000680,-0.000934,0.000150,  21.560
  1396.0,0.000716,0.000682,-0.001344,0.000141,  21.558
  1397.0,0.000722,0.000687,-0.001010,0.000141,  21.564
  1398.0,0.000716,0.000698,-0.000859,0.000141,  21.560
  1399.0,0.000723,0.000689,-0.000764,0.000155,  21.558
  1400.0,0.000730,0.000695,-0.000536,0.000128,  21.566
  1401.0,0.000721,0.000691,-0.000478,0.000128,  21.567
  1402.0,0.000723,0.000691,-0.000408,0.000128,  21.562
  1403.0,0.000723,0.000693,-0.000499,0.000114,  21.567
  1404.0,0.000726,0.000699,-0.000629,0.000079,  21.569
  1405.0,0.000714,0.000701,-0.000513,0.000114,  21.564
  1406.0,0.000707,0.000686,-0.001382,0.000128,  21.566
  1407.0,0.000725,0.000685,-0.001053,0.000141,  21.564
  1408.0,0.000727,0.000701,-0.000769,0.000163,  21.569
  1409.0,0.000742,0.000700,-0.000570,0.000155,  21.570
  1410.0,0.000739,0.000705,-0.000499,0.000141,  21.572
  1411.0,0.000741,0.000708,-0.000925,0.000141,  21.568
  1412.0,0.000741,0.000704,-0.000525,0.000155,  21.567
  1413.0,0.000746,0.000715,-0.000457,0.000141,  21.565
  1414.0,0.000746,0.000719,-0.000453,0.000155,  21.570
  1415.0,0.000736,0.000727,-0.001035,0.000155,  21.567
  1416.0,0.000736,0.000712,-0.000715,0.000155,  21.566
  1417.0,0.000736,0.000704,-0.000529,0.000155,  21.564
  1418.0,0.000739,0.000708,-0.000551,0.000168,  21.564
  1419.0,0.000740,0.000713,-0.000260,0.000155,  21.563
  1420.0,0.000734,0.000708,-0.000926,0.000155,  21.562
  1421.0,0.000745,0.000695,-0.000644,0.000155,  21.562
  1422.0,0.000741,0.000704,-0.000534,0.000155,  21.568
  1423.0,0.000746,0.000713,-0.000304,0.000168,  21.564
  1424.0,0.000752,0.000718,-0.000288,0.000128,  21.566
  1425.0,0.000758,0.000717,-0.000304,0.000128,  21.569
  1426.0,0.000733,0.000726,-0.000444,0.000128,  21.572
  1427.0,0.000728,0.000717,-0.000483,0.000128,  21.569
  1428.0,0.000730,0.000699,-0.000901,0.000128,  21.574
  1429.0,0.000738,0.000698,-0.000738,0.000114,  21.583
  1430.0,0.000739,0.000715,-0.000609,0.000092,  21.588
  1431.0,0.000732,0.000707,-0.000595,0.000155,  21.589
  1432.0,0.000738,0.000697,-0.000472,0.000141,  21.593
  1433.0,0.000740,0.000700,-0.000625,0.000155,  21.592
  1434.0,0.000739,0.000707,-0.000777,0.000168,  21.595
  1435.0,0.000745,0.000712,-0.000566,0.000141,  21.597
  1436.0,0.000740,0.000716,-0.001163,0.000155,  21.603
  1437.0,0.000737,0.000713,-0.000721,0.000155,  21.604
  1438.0,0.000746,0.000702,-0.000444,0.000141,  21.609
  1439.0,0.000747,0.000710,-0.000425,0.000141,  21.607
  1440.0,0.000751,0.000713,-0.000437,0.000128,  21.610
  1441.0,0.000748,0.000708,-0.000353,0.000141,  21.616
  1442.0,0.000751,0.000714,-0.000269,0.000155,  21.618
  1443.0,0.000749,0.000715,-0.000438,0.000141,  21.617
  1444.0,0.000743,0.000703,-0.000395,0.000155,  21.618
  1445.0,0.000740,0.000701,-0.000231,0.000141,  21.617
  1446.0,0.000740,0.000712,-0.000373,0.000128,  21.615
  1447.0,0.000732,0.000710,-0.000485,0.000141,  21.616
  1448.0,0.000728,0.000713,-0.000484,0.000141,  21.614
  1449.0,0.000733,0.000701,-0.000414,0.000141,  21.610
  1450.0,0.000735,0.000694,-0.000464,0.000141,  21.610
  1451.0,0.000741,0.000703,-0.000402,0.000128,  21.612
  1452.0,0.000734,0.000704,-0.001672,0.000128,  21.614
  1453.0,0.000720,0.000701,-0.000891,0.000141,  21.618
  1454.0,0.000725,0.000690,-0.000574,0.000128,  21.614
  1455.0,0.000719,0.000696,-0.000525,0.000128,  21.618
  1456.0,0.000708,0.000689,-0.000524,0.000141,  21.617
  1457.0,0.000710,0.000681,-0.000469,0.000128,  21.613
  1458.0,0.000723,0.000675,-0.000501,0.000106,  21.613
  1459.0,0.000725,0.000677,-0.000476,0.000114,  21.614
  1460.0,0.000737,0.000681,-0.000468,0.000114,  21.605
  1461.0,0.000728,0.000694,-0.000502,0.000137,  21.611
  1462.0,0.000726,0.000694,-0.000610,0.000150,  21.611
  1463.0,0.000727,0.000687,-0.000555,0.000128,  21.606
  1464.0,0.000737,0.000692,-0.000472,0.000177,  21.606
  1465.0,0.000737,0.000692,-0.000375,0.000128,  21.609
  1466.0,0.000734,0.000693,-0.000481,0.000114,  21.611
  1467.0,0.000742,0.000702,-0.000356,0.000101,  21.612
  1468.0,0.000728,0.000706,-0.000347,0.000128,  21.612
  1469.0,0.000710,0.000701,-0.000290,0.000141,  21.612
  1470.0,0.000731,0.000681,-0.000542,0.000141,  21.604
  1471.0,0.000739,0.000697,-0.000842,0.000155,  21.608
  1472.0,0.000739,0.000712,-0.000511,0.000119,  21.617
  1473.0,0.000736,0.000713,-0.000371,0.000119,  21.618
  1474.0,0.000737,0.000707,-0.001134,0.000084,  21.617
  1475.0,0.000748,0.000701,-0.000590,0.000119,  21.619
  1476.0,0.000756,0.000710,-0.000967,0.000106,  21.616
  1477.0,0.000754,0.000717,-0.000395,0.000119,  21.620
  1478.0,0.000743,0.000720,-0.000273,0.000106,  21.621
  1479.0,0.000744,0.000719,-0.000550,0.000084,  21.619
  1480.0,0.000746,0.000711,-0.000643,0.000119,  21.617
  1481.0,0.000750,0.000711,-0.000433,0.000106,  21.620
  1482.0,0.000754,0.000712,-0.000410,0.000084,  21.617
  1483.0,0.000752,0.000725,-0.000765,0.000128,  21.618
  1484.0,0.000754,0.000723,-0.000508,0.000128,  21.622
  1485.0,0.000748,0.000722,-0.000280,0.000106,  21.623
  1486.0,0.000752,0.000717,-0.000182,0.000137,  21.622
  1487.0,0.000752,0.000719,-0.000263,0.000101,  21.621
  1488.0,0.000746,0.000718,-0.000269,0.000087,  21.618
  1489.0,0.000746,0.000723,-0.000416,0.000128,  21.620
  1490.0,0.000723,0.000710,-0.000508,0.000092,  21.621
